timestampMs,poorSignal,eegRawValue,eegRawValueVolts,attention,meditation,blinkStrength,delta,theta,alphaLow,alphaHigh,betaLow,betaHigh,gammaLow,gammaMid,tagEvent,location
1542899619159,0,-259,-5.69091796875E-5,61,30,41,106108,139898,8517,11219,16749275,19200,4480,2416,Tag0,unknown
1542899619159,0,-268,-5.8886718750000006E-5,61,30,41,106108,139898,8517,11219,16749275,19200,4480,2416,Tag0,unknown
1542899619159,0,3,6.591796875E-7,61,30,41,106108,139898,8517,11219,16749275,19200,4480,2416,Tag0,unknown
1542899619160,0,21,4.614257812500001E-6,61,30,41,106108,139898,8517,11219,16749275,19200,4480,2416,Tag0,unknown
1542899619160,0,8,1.7578125E-6,61,30,41,106108,139898,8517,11219,16749275,19200,4480,2416,Tag0,unknown
1542899619160,0,-269,-5.9106445312499996E-5,61,30,41,106108,139898,8517,11219,16749275,19200,4480,2416,Tag0,unknown
1542899619160,0,-278,-6.108398437500001E-5,61,30,41,106108,139898,8517,11219,16749275,19200,4480,2416,Tag0,unknown
1542899619160,0,-278,-6.108398437500001E-5,61,30,41,106108,139898,8517,11219,16749275,19200,4480,2416,Tag0,unknown
1542899619161,0,3,6.591796875E-7,61,30,41,106108,139898,8517,11219,16749275,19200,4480,2416,Tag0,unknown
1542899619161,0,33,7.2509765625E-6,61,30,41,106108,139898,8517,11219,16749275,19200,4480,2416,Tag0,unknown
1542899619162,0,39,8.5693359375E-6,61,30,41,106108,139898,8517,11219,16749275,19200,4480,2416,Tag0,unknown
1542899619162,0,48,1.0546875E-5,61,30,41,106108,139898,8517,11219,16749275,19200,4480,2416,Tag0,unknown
1542899619162,0,54,1.1865234375000001E-5,61,30,41,106108,139898,8517,11219,16749275,19200,4480,2416,Tag0,unknown
1542899619162,0,51,1.1206054687499999E-5,61,30,41,106108,139898,8517,11219,16749275,19200,4480,2416,Tag0,unknown
1542899619162,0,50,1.0986328125E-5,61,30,41,106108,139898,8517,11219,16749275,19200,4480,2416,Tag0,unknown
1542899619162,0,74,1.6259765625E-5,61,30,41,106108,139898,8517,11219,16749275,19200,4480,2416,Tag0,unknown
1542899619163,0,96,2.109375E-5,61,30,41,106108,139898,8517,11219,16749275,19200,4480,2416,Tag0,unknown
1542899619163,0,97,2.13134765625E-5,61,30,41,106108,139898,8517,11219,16749275,19200,4480,2416,Tag0,unknown
1542899619163,0,91,1.99951171875E-5,61,30,41,106108,139898,8517,11219,16749275,19200,4480,2416,Tag0,unknown
1542899619163,0,96,2.109375E-5,61,30,41,106108,139898,8517,11219,16749275,19200,4480,2416,Tag0,unknown
1542899619164,0,101,2.2192382812500002E-5,61,30,41,106108,139898,8517,11219,16749275,19200,4480,2416,Tag0,unknown
1542899619164,0,97,2.13134765625E-5,61,30,41,106108,139898,8517,11219,16749275,19200,4480,2416,Tag0,unknown
1542899619164,0,87,1.91162109375E-5,61,30,41,106108,139898,8517,11219,16749275,19200,4480,2416,Tag0,unknown
1542899619168,0,72,1.58203125E-5,61,30,41,106108,139898,8517,11219,16749275,19200,4480,2416,Tag0,unknown
1542899619168,0,69,1.51611328125E-5,61,30,41,106108,139898,8517,11219,16749275,19200,4480,2416,Tag0,unknown
1542899619168,0,75,1.64794921875E-5,61,30,41,106108,139898,8517,11219,16749275,19200,4480,2416,Tag0,unknown
1542899619168,0,76,1.669921875E-5,61,30,41,106108,139898,8517,11219,16749275,19200,4480,2416,Tag0,unknown
1542899619169,0,55,1.20849609375E-5,61,30,41,106108,139898,8517,11219,16749275,19200,4480,2416,Tag0,unknown
1542899619169,0,27,5.9326171875000005E-6,61,30,41,106108,139898,8517,11219,16749275,19200,4480,2416,Tag0,unknown
1542899619169,0,19,4.1748046875E-6,61,30,41,106108,139898,8517,11219,16749275,19200,4480,2416,Tag0,unknown
1542899619169,0,32,7.03125E-6,61,30,41,106108,139898,8517,11219,16749275,19200,4480,2416,Tag0,unknown
1542899619177,0,41,9.008789062499999E-6,61,30,41,106108,139898,8517,11219,16749275,19200,4480,2416,Tag0,unknown
1542899619177,0,38,8.349609375E-6,61,30,41,106108,139898,8517,11219,16749275,19200,4480,2416,Tag0,unknown
1542899619177,0,40,8.7890625E-6,61,30,41,106108,139898,8517,11219,16749275,19200,4480,2416,Tag0,unknown
1542899619178,0,49,1.07666015625E-5,61,30,41,106108,139898,8517,11219,16749275,19200,4480,2416,Tag0,unknown
1542899619178,0,54,1.1865234375000001E-5,61,30,41,106108,139898,8517,11219,16749275,19200,4480,2416,Tag0,unknown
1542899619194,0,61,1.34033203125E-5,61,30,41,106108,139898,8517,11219,16749275,19200,4480,2416,Tag0,unknown
1542899619213,0,64,1.40625E-5,50,48,41,68390,78810,74582,2705,11730,11406,2268,981,Tag0,unknown
1542899619213,0,58,1.2744140625E-5,50,48,41,68390,78810,74582,2705,11730,11406,2268,981,Tag0,unknown
1542899619213,0,54,1.1865234375000001E-5,50,48,41,68390,78810,74582,2705,11730,11406,2268,981,Tag0,unknown
1542899619214,0,53,1.1645507812500002E-5,50,48,41,68390,78810,74582,2705,11730,11406,2268,981,Tag0,unknown
1542899619214,0,51,1.1206054687499999E-5,50,48,41,68390,78810,74582,2705,11730,11406,2268,981,Tag0,unknown
1542899619214,0,37,8.1298828125E-6,50,48,41,68390,78810,74582,2705,11730,11406,2268,981,Tag0,unknown
1542899619214,0,3,6.591796875E-7,50,48,41,68390,78810,74582,2705,11730,11406,2268,981,Tag0,unknown
1542899619214,0,-261,-5.73486328125E-5,50,48,41,68390,78810,74582,2705,11730,11406,2268,981,Tag0,unknown
1542899619214,0,33,7.2509765625E-6,50,48,41,68390,78810,74582,2705,11730,11406,2268,981,Tag0,unknown
1542899619214,0,66,1.4501953125E-5,50,48,41,68390,78810,74582,2705,11730,11406,2268,981,Tag0,unknown
1542899619214,0,67,1.4721679687500002E-5,50,48,41,68390,78810,74582,2705,11730,11406,2268,981,Tag0,unknown
1542899619215,0,64,1.40625E-5,50,48,41,68390,78810,74582,2705,11730,11406,2268,981,Tag0,unknown
1542899619215,0,74,1.6259765625E-5,50,48,41,68390,78810,74582,2705,11730,11406,2268,981,Tag0,unknown
1542899619215,0,85,1.86767578125E-5,50,48,41,68390,78810,74582,2705,11730,11406,2268,981,Tag0,unknown
1542899619215,0,68,1.4941406250000001E-5,50,48,41,68390,78810,74582,2705,11730,11406,2268,981,Tag0,unknown
1542899619215,0,39,8.5693359375E-6,50,48,41,68390,78810,74582,2705,11730,11406,2268,981,Tag0,unknown
1542899619230,0,26,5.712890625E-6,50,48,41,68390,78810,74582,2705,11730,11406,2268,981,Tag0,unknown
1542899619230,0,25,5.4931640625E-6,50,48,41,68390,78810,74582,2705,11730,11406,2268,981,Tag0,unknown
1542899619230,0,17,3.7353515625000003E-6,50,48,41,68390,78810,74582,2705,11730,11406,2268,981,Tag0,unknown
1542899619230,0,3,6.591796875E-7,50,48,41,68390,78810,74582,2705,11730,11406,2268,981,Tag0,unknown
1542899619231,0,5,1.0986328125E-6,50,48,41,68390,78810,74582,2705,11730,11406,2268,981,Tag0,unknown
1542899619231,0,20,4.39453125E-6,50,48,41,68390,78810,74582,2705,11730,11406,2268,981,Tag0,unknown
1542899619231,0,37,8.1298828125E-6,50,48,41,68390,78810,74582,2705,11730,11406,2268,981,Tag0,unknown
1542899619231,0,60,1.318359375E-5,50,48,41,68390,78810,74582,2705,11730,11406,2268,981,Tag0,unknown
1542899619231,0,67,1.4721679687500002E-5,50,48,41,68390,78810,74582,2705,11730,11406,2268,981,Tag0,unknown
1542899619231,0,65,1.42822265625E-5,50,48,41,68390,78810,74582,2705,11730,11406,2268,981,Tag0,unknown
1542899619244,0,72,1.58203125E-5,50,48,41,68390,78810,74582,2705,11730,11406,2268,981,Tag0,unknown
1542899619245,0,83,1.82373046875E-5,50,48,41,68390,78810,74582,2705,11730,11406,2268,981,Tag0,unknown
1542899619245,0,75,1.64794921875E-5,50,48,41,68390,78810,74582,2705,11730,11406,2268,981,Tag0,unknown
1542899619245,0,55,1.20849609375E-5,50,48,41,68390,78810,74582,2705,11730,11406,2268,981,Tag0,unknown
1542899619245,0,42,9.228515625000002E-6,50,48,41,68390,78810,74582,2705,11730,11406,2268,981,Tag0,unknown
1542899619246,0,43,9.448242187500001E-6,50,48,41,68390,78810,74582,2705,11730,11406,2268,981,Tag0,unknown
1542899619246,0,49,1.07666015625E-5,50,48,41,68390,78810,74582,2705,11730,11406,2268,981,Tag0,unknown
1542899619263,0,54,1.1865234375000001E-5,50,48,41,68390,78810,74582,2705,11730,11406,2268,981,Tag0,unknown
1542899619263,0,52,1.142578125E-5,50,48,41,68390,78810,74582,2705,11730,11406,2268,981,Tag0,unknown
1542899619264,0,41,9.008789062499999E-6,50,48,41,68390,78810,74582,2705,11730,11406,2268,981,Tag0,unknown
1542899619264,0,20,4.39453125E-6,50,48,41,68390,78810,74582,2705,11730,11406,2268,981,Tag0,unknown
1542899619264,0,4,8.7890625E-7,50,48,41,68390,78810,74582,2705,11730,11406,2268,981,Tag0,unknown
1542899619265,0,16,3.515625E-6,50,48,41,68390,78810,74582,2705,11730,11406,2268,981,Tag0,unknown
1542899619265,0,25,5.4931640625E-6,50,48,41,68390,78810,74582,2705,11730,11406,2268,981,Tag0,unknown
1542899619266,0,40,8.7890625E-6,50,48,41,68390,78810,74582,2705,11730,11406,2268,981,Tag0,unknown
1542899619266,0,59,1.29638671875E-5,50,48,41,68390,78810,74582,2705,11730,11406,2268,981,Tag0,unknown
1542899619280,0,60,1.318359375E-5,50,48,41,68390,78810,74582,2705,11730,11406,2268,981,Tag0,unknown
1542899619281,0,50,1.0986328125E-5,50,48,41,68390,78810,74582,2705,11730,11406,2268,981,Tag0,unknown
1542899619281,0,55,1.20849609375E-5,50,48,41,68390,78810,74582,2705,11730,11406,2268,981,Tag0,unknown
1542899619282,0,71,1.56005859375E-5,50,48,41,68390,78810,74582,2705,11730,11406,2268,981,Tag0,unknown
1542899619282,0,87,1.91162109375E-5,50,48,41,68390,78810,74582,2705,11730,11406,2268,981,Tag0,unknown
1542899619283,0,97,2.13134765625E-5,50,48,41,68390,78810,74582,2705,11730,11406,2268,981,Tag0,unknown
1542899619283,0,101,2.2192382812500002E-5,50,48,41,68390,78810,74582,2705,11730,11406,2268,981,Tag0,unknown
1542899619283,0,113,2.48291015625E-5,50,48,41,68390,78810,74582,2705,11730,11406,2268,981,Tag0,unknown
1542899619283,0,-119,-2.6147460937500004E-5,50,48,41,68390,78810,74582,2705,11730,11406,2268,981,Tag0,unknown
1542899619296,0,-99,-2.1752929687500003E-5,50,48,41,68390,78810,74582,2705,11730,11406,2268,981,Tag0,unknown
1542899619296,0,-88,-1.93359375E-5,50,48,41,68390,78810,74582,2705,11730,11406,2268,981,Tag0,unknown
1542899619296,0,-80,-1.7578125E-5,50,48,41,68390,78810,74582,2705,11730,11406,2268,981,Tag0,unknown
1542899619297,0,-84,-1.8457031250000004E-5,50,48,41,68390,78810,74582,2705,11730,11406,2268,981,Tag0,unknown
1542899619297,0,-85,-1.86767578125E-5,50,48,41,68390,78810,74582,2705,11730,11406,2268,981,Tag0,unknown
1542899619298,0,-90,-1.9775390625E-5,50,48,41,68390,78810,74582,2705,11730,11406,2268,981,Tag0,unknown
1542899619298,0,-108,-2.3730468750000002E-5,50,48,41,68390,78810,74582,2705,11730,11406,2268,981,Tag0,unknown
1542899619298,0,-126,-2.7685546875E-5,50,48,41,68390,78810,74582,2705,11730,11406,2268,981,Tag0,unknown
1542899619312,0,100,2.197265625E-5,50,48,41,68390,78810,74582,2705,11730,11406,2268,981,Tag0,unknown
1542899619313,0,54,1.1865234375000001E-5,50,48,41,68390,78810,74582,2705,11730,11406,2268,981,Tag0,unknown
1542899619313,0,24,5.2734375E-6,50,48,41,68390,78810,74582,2705,11730,11406,2268,981,Tag0,unknown
1542899619313,0,22,4.833984375E-6,50,48,41,68390,78810,74582,2705,11730,11406,2268,981,Tag0,unknown
1542899619314,0,33,7.2509765625E-6,50,48,41,68390,78810,74582,2705,11730,11406,2268,981,Tag0,unknown
1542899619314,0,43,9.448242187500001E-6,50,48,41,68390,78810,74582,2705,11730,11406,2268,981,Tag0,unknown
1542899619314,0,38,8.349609375E-6,50,48,41,68390,78810,74582,2705,11730,11406,2268,981,Tag0,unknown
1542899619315,0,7,1.5380859375E-6,50,48,41,68390,78810,74582,2705,11730,11406,2268,981,Tag0,unknown
1542899619315,0,-268,-5.8886718750000006E-5,50,48,41,68390,78810,74582,2705,11730,11406,2268,981,Tag0,unknown
1542899619330,0,8,1.7578125E-6,50,48,41,68390,78810,74582,2705,11730,11406,2268,981,Tag0,unknown
1542899619332,0,54,1.1865234375000001E-5,50,48,41,68390,78810,74582,2705,11730,11406,2268,981,Tag0,unknown
1542899619332,0,66,1.4501953125E-5,50,48,41,68390,78810,74582,2705,11730,11406,2268,981,Tag0,unknown
1542899619333,0,49,1.07666015625E-5,50,48,41,68390,78810,74582,2705,11730,11406,2268,981,Tag0,unknown
1542899619333,0,27,5.9326171875000005E-6,50,48,41,68390,78810,74582,2705,11730,11406,2268,981,Tag0,unknown
1542899619333,0,11,2.4169921875E-6,50,48,41,68390,78810,74582,2705,11730,11406,2268,981,Tag0,unknown
1542899619334,0,-257,-5.64697265625E-5,50,48,41,68390,78810,74582,2705,11730,11406,2268,981,Tag0,unknown
1542899619334,0,-267,-5.86669921875E-5,50,48,41,68390,78810,74582,2705,11730,11406,2268,981,Tag0,unknown
1542899619348,0,-280,-6.15234375E-5,50,48,41,68390,78810,74582,2705,11730,11406,2268,981,Tag0,unknown
1542899619348,0,-284,-6.240234375E-5,50,48,41,68390,78810,74582,2705,11730,11406,2268,981,Tag0,unknown
1542899619349,0,-273,-5.998535156250001E-5,50,48,41,68390,78810,74582,2705,11730,11406,2268,981,Tag0,unknown
1542899619349,0,2,4.39453125E-7,50,48,41,68390,78810,74582,2705,11730,11406,2268,981,Tag0,unknown
1542899619349,0,16,3.515625E-6,50,48,41,68390,78810,74582,2705,11730,11406,2268,981,Tag0,unknown
1542899619349,0,21,4.614257812500001E-6,50,48,41,68390,78810,74582,2705,11730,11406,2268,981,Tag0,unknown
1542899619349,0,21,4.614257812500001E-6,50,48,41,68390,78810,74582,2705,11730,11406,2268,981,Tag0,unknown
1542899619349,0,18,3.955078125E-6,50,48,41,68390,78810,74582,2705,11730,11406,2268,981,Tag0,unknown
1542899619363,0,17,3.7353515625000003E-6,50,48,41,68390,78810,74582,2705,11730,11406,2268,981,Tag0,unknown
1542899619363,0,26,5.712890625E-6,50,48,41,68390,78810,74582,2705,11730,11406,2268,981,Tag0,unknown
1542899619364,0,18,3.955078125E-6,50,48,41,68390,78810,74582,2705,11730,11406,2268,981,Tag0,unknown
1542899619364,0,-281,-6.17431640625E-5,50,48,41,68390,78810,74582,2705,11730,11406,2268,981,Tag0,unknown
1542899619364,0,-282,-6.1962890625E-5,50,48,41,68390,78810,74582,2705,11730,11406,2268,981,Tag0,unknown
1542899619379,0,-264,-5.80078125E-5,50,48,41,68390,78810,74582,2705,11730,11406,2268,981,Tag0,unknown
1542899619380,0,-263,-5.7788085937500005E-5,50,48,41,68390,78810,74582,2705,11730,11406,2268,981,Tag0,unknown
1542899619380,0,-261,-5.73486328125E-5,50,48,41,68390,78810,74582,2705,11730,11406,2268,981,Tag0,unknown
1542899619380,0,21,4.614257812500001E-6,50,48,41,68390,78810,74582,2705,11730,11406,2268,981,Tag0,unknown
1542899619380,0,35,7.6904296875E-6,50,48,41,68390,78810,74582,2705,11730,11406,2268,981,Tag0,unknown
1542899619381,0,17,3.7353515625000003E-6,50,48,41,68390,78810,74582,2705,11730,11406,2268,981,Tag0,unknown
1542899619381,0,-269,-5.9106445312499996E-5,50,48,41,68390,78810,74582,2705,11730,11406,2268,981,Tag0,unknown
1542899619381,0,-282,-6.1962890625E-5,50,48,41,68390,78810,74582,2705,11730,11406,2268,981,Tag0,unknown
1542899619381,0,7,1.5380859375E-6,50,48,41,68390,78810,74582,2705,11730,11406,2268,981,Tag0,unknown
1542899619381,0,54,1.1865234375000001E-5,50,48,41,68390,78810,74582,2705,11730,11406,2268,981,Tag0,unknown
1542899619381,0,67,1.4721679687500002E-5,50,48,41,68390,78810,74582,2705,11730,11406,2268,981,Tag0,unknown
1542899619395,0,42,9.228515625000002E-6,50,48,41,68390,78810,74582,2705,11730,11406,2268,981,Tag0,unknown
1542899619396,0,8,1.7578125E-6,50,48,41,68390,78810,74582,2705,11730,11406,2268,981,Tag0,unknown
1542899619396,0,0,0.0,50,48,41,68390,78810,74582,2705,11730,11406,2268,981,Tag0,unknown
1542899619396,0,20,4.39453125E-6,50,48,41,68390,78810,74582,2705,11730,11406,2268,981,Tag0,unknown
1542899619396,0,48,1.0546875E-5,50,48,41,68390,78810,74582,2705,11730,11406,2268,981,Tag0,unknown
1542899619396,0,65,1.42822265625E-5,50,48,41,68390,78810,74582,2705,11730,11406,2268,981,Tag0,unknown
1542899619396,0,68,1.4941406250000001E-5,50,48,41,68390,78810,74582,2705,11730,11406,2268,981,Tag0,unknown
1542899619397,0,50,1.0986328125E-5,50,48,41,68390,78810,74582,2705,11730,11406,2268,981,Tag0,unknown
1542899619397,0,38,8.349609375E-6,50,48,41,68390,78810,74582,2705,11730,11406,2268,981,Tag0,unknown
1542899619397,0,55,1.20849609375E-5,50,48,41,68390,78810,74582,2705,11730,11406,2268,981,Tag0,unknown
1542899619397,0,73,1.6040039062500002E-5,50,48,41,68390,78810,74582,2705,11730,11406,2268,981,Tag0,unknown
1542899619413,0,58,1.2744140625E-5,50,48,41,68390,78810,74582,2705,11730,11406,2268,981,Tag0,unknown
1542899619414,0,22,4.833984375E-6,50,48,41,68390,78810,74582,2705,11730,11406,2268,981,Tag0,unknown
1542899619414,0,6,1.318359375E-6,50,48,41,68390,78810,74582,2705,11730,11406,2268,981,Tag0,unknown
1542899619414,0,19,4.1748046875E-6,50,48,41,68390,78810,74582,2705,11730,11406,2268,981,Tag0,unknown
1542899619415,0,36,7.91015625E-6,50,48,41,68390,78810,74582,2705,11730,11406,2268,981,Tag0,unknown
1542899619415,0,36,7.91015625E-6,50,48,41,68390,78810,74582,2705,11730,11406,2268,981,Tag0,unknown
1542899619416,0,16,3.515625E-6,50,48,41,68390,78810,74582,2705,11730,11406,2268,981,Tag0,unknown
1542899619416,0,1,2.197265625E-7,50,48,41,68390,78810,74582,2705,11730,11406,2268,981,Tag0,unknown
1542899619429,0,3,6.591796875E-7,50,48,41,68390,78810,74582,2705,11730,11406,2268,981,Tag0,unknown
1542899619430,0,-258,-5.6689453125000004E-5,50,48,41,68390,78810,74582,2705,11730,11406,2268,981,Tag0,unknown
1542899619430,0,1,2.197265625E-7,50,48,41,68390,78810,74582,2705,11730,11406,2268,981,Tag0,unknown
1542899619431,0,26,5.712890625E-6,50,48,41,68390,78810,74582,2705,11730,11406,2268,981,Tag0,unknown
1542899619431,0,52,1.142578125E-5,50,48,41,68390,78810,74582,2705,11730,11406,2268,981,Tag0,unknown
1542899619448,0,61,1.34033203125E-5,50,48,41,68390,78810,74582,2705,11730,11406,2268,981,Tag0,unknown
1542899619467,0,54,1.1865234375000001E-5,50,48,41,68390,78810,74582,2705,11730,11406,2268,981,Tag0,unknown
1542899619468,0,22,4.833984375E-6,50,48,41,68390,78810,74582,2705,11730,11406,2268,981,Tag0,unknown
1542899619468,0,5,1.0986328125E-6,50,48,41,68390,78810,74582,2705,11730,11406,2268,981,Tag0,unknown
1542899619469,0,12,2.63671875E-6,50,48,41,68390,78810,74582,2705,11730,11406,2268,981,Tag0,unknown
1542899619470,0,24,5.2734375E-6,50,48,41,68390,78810,74582,2705,11730,11406,2268,981,Tag0,unknown
1542899619470,0,28,6.15234375E-6,50,48,41,68390,78810,74582,2705,11730,11406,2268,981,Tag0,unknown
1542899619470,0,17,3.7353515625000003E-6,50,48,41,68390,78810,74582,2705,11730,11406,2268,981,Tag0,unknown
1542899619471,0,1,2.197265625E-7,50,48,41,68390,78810,74582,2705,11730,11406,2268,981,Tag0,unknown
1542899619471,0,0,0.0,50,48,41,68390,78810,74582,2705,11730,11406,2268,981,Tag0,unknown
1542899619472,0,17,3.7353515625000003E-6,50,48,41,68390,78810,74582,2705,11730,11406,2268,981,Tag0,unknown
1542899619472,0,39,8.5693359375E-6,50,48,41,68390,78810,74582,2705,11730,11406,2268,981,Tag0,unknown
1542899619473,0,49,1.07666015625E-5,50,48,41,68390,78810,74582,2705,11730,11406,2268,981,Tag0,unknown
1542899619473,0,44,9.66796875E-6,50,48,41,68390,78810,74582,2705,11730,11406,2268,981,Tag0,unknown
1542899619474,0,50,1.0986328125E-5,50,48,41,68390,78810,74582,2705,11730,11406,2268,981,Tag0,unknown
1542899619474,0,64,1.40625E-5,50,48,41,68390,78810,74582,2705,11730,11406,2268,981,Tag0,unknown
1542899619475,0,70,1.5380859375E-5,50,48,41,68390,78810,74582,2705,11730,11406,2268,981,Tag0,unknown
1542899619475,0,68,1.4941406250000001E-5,50,48,41,68390,78810,74582,2705,11730,11406,2268,981,Tag0,unknown
1542899619475,0,71,1.56005859375E-5,50,48,41,68390,78810,74582,2705,11730,11406,2268,981,Tag0,unknown
1542899619476,0,65,1.42822265625E-5,50,48,41,68390,78810,74582,2705,11730,11406,2268,981,Tag0,unknown
1542899619480,0,48,1.0546875E-5,50,48,41,68390,78810,74582,2705,11730,11406,2268,981,Tag0,unknown
1542899619480,0,36,7.91015625E-6,50,48,41,68390,78810,74582,2705,11730,11406,2268,981,Tag0,unknown
1542899619480,0,40,8.7890625E-6,50,48,41,68390,78810,74582,2705,11730,11406,2268,981,Tag0,unknown
1542899619481,0,48,1.0546875E-5,50,48,41,68390,78810,74582,2705,11730,11406,2268,981,Tag0,unknown
1542899619481,0,43,9.448242187500001E-6,50,48,41,68390,78810,74582,2705,11730,11406,2268,981,Tag0,unknown
1542899619481,0,26,5.712890625E-6,50,48,41,68390,78810,74582,2705,11730,11406,2268,981,Tag0,unknown
1542899619481,0,54,1.1865234375000001E-5,50,48,41,68390,78810,74582,2705,11730,11406,2268,981,Tag0,unknown
1542899619481,0,91,1.99951171875E-5,50,48,41,68390,78810,74582,2705,11730,11406,2268,981,Tag0,unknown
1542899619481,0,103,2.26318359375E-5,50,48,41,68390,78810,74582,2705,11730,11406,2268,981,Tag0,unknown
1542899619482,0,97,2.13134765625E-5,50,48,41,68390,78810,74582,2705,11730,11406,2268,981,Tag0,unknown
1542899619497,0,84,1.8457031250000004E-5,50,48,41,68390,78810,74582,2705,11730,11406,2268,981,Tag0,unknown
1542899619497,0,61,1.34033203125E-5,50,48,41,68390,78810,74582,2705,11730,11406,2268,981,Tag0,unknown
1542899619498,0,51,1.1206054687499999E-5,50,48,41,68390,78810,74582,2705,11730,11406,2268,981,Tag0,unknown
1542899619498,0,66,1.4501953125E-5,50,48,41,68390,78810,74582,2705,11730,11406,2268,981,Tag0,unknown
1542899619498,0,87,1.91162109375E-5,50,48,41,68390,78810,74582,2705,11730,11406,2268,981,Tag0,unknown
1542899619498,0,98,2.1533203125E-5,50,48,41,68390,78810,74582,2705,11730,11406,2268,981,Tag0,unknown
1542899619498,0,87,1.91162109375E-5,50,48,41,68390,78810,74582,2705,11730,11406,2268,981,Tag0,unknown
1542899619499,0,67,1.4721679687500002E-5,50,48,41,68390,78810,74582,2705,11730,11406,2268,981,Tag0,unknown
1542899619513,0,58,1.2744140625E-5,50,48,41,68390,78810,74582,2705,11730,11406,2268,981,Tag0,unknown
1542899619513,0,51,1.1206054687499999E-5,50,48,41,68390,78810,74582,2705,11730,11406,2268,981,Tag0,unknown
1542899619514,0,55,1.20849609375E-5,50,48,41,68390,78810,74582,2705,11730,11406,2268,981,Tag0,unknown
1542899619514,0,65,1.42822265625E-5,50,48,41,68390,78810,74582,2705,11730,11406,2268,981,Tag0,unknown
1542899619515,0,72,1.58203125E-5,50,48,41,68390,78810,74582,2705,11730,11406,2268,981,Tag0,unknown
1542899619515,0,75,1.64794921875E-5,50,48,41,68390,78810,74582,2705,11730,11406,2268,981,Tag0,unknown
1542899619516,0,57,1.2524414062500001E-5,50,48,41,68390,78810,74582,2705,11730,11406,2268,981,Tag0,unknown
1542899619516,0,32,7.03125E-6,50,48,41,68390,78810,74582,2705,11730,11406,2268,981,Tag0,unknown
1542899619530,0,29,6.3720703125E-6,50,48,41,68390,78810,74582,2705,11730,11406,2268,981,Tag0,unknown
1542899619531,0,49,1.07666015625E-5,50,48,41,68390,78810,74582,2705,11730,11406,2268,981,Tag0,unknown
1542899619531,0,59,1.29638671875E-5,50,48,41,68390,78810,74582,2705,11730,11406,2268,981,Tag0,unknown
1542899619531,0,42,9.228515625000002E-6,50,48,41,68390,78810,74582,2705,11730,11406,2268,981,Tag0,unknown
1542899619532,0,25,5.4931640625E-6,50,48,41,68390,78810,74582,2705,11730,11406,2268,981,Tag0,unknown
1542899619532,0,5,1.0986328125E-6,50,48,41,68390,78810,74582,2705,11730,11406,2268,981,Tag0,unknown
1542899619532,0,19,4.1748046875E-6,50,48,41,68390,78810,74582,2705,11730,11406,2268,981,Tag0,unknown
1542899619533,0,52,1.142578125E-5,50,48,41,68390,78810,74582,2705,11730,11406,2268,981,Tag0,unknown
1542899619533,0,57,1.2524414062500001E-5,50,48,41,68390,78810,74582,2705,11730,11406,2268,981,Tag0,unknown
1542899619548,0,65,1.42822265625E-5,50,48,41,68390,78810,74582,2705,11730,11406,2268,981,Tag0,unknown
1542899619549,0,81,1.77978515625E-5,50,48,41,68390,78810,74582,2705,11730,11406,2268,981,Tag0,unknown
1542899619549,0,87,1.91162109375E-5,50,48,41,68390,78810,74582,2705,11730,11406,2268,981,Tag0,unknown
1542899619550,0,68,1.4941406250000001E-5,50,48,41,68390,78810,74582,2705,11730,11406,2268,981,Tag0,unknown
1542899619550,0,52,1.142578125E-5,50,48,41,68390,78810,74582,2705,11730,11406,2268,981,Tag0,unknown
1542899619550,0,61,1.34033203125E-5,50,48,41,68390,78810,74582,2705,11730,11406,2268,981,Tag0,unknown
1542899619551,0,68,1.4941406250000001E-5,50,48,41,68390,78810,74582,2705,11730,11406,2268,981,Tag0,unknown
1542899619551,0,73,1.6040039062500002E-5,50,48,41,68390,78810,74582,2705,11730,11406,2268,981,Tag0,unknown
1542899619551,0,87,1.91162109375E-5,50,48,41,68390,78810,74582,2705,11730,11406,2268,981,Tag0,unknown
1542899619564,0,89,1.95556640625E-5,50,48,41,68390,78810,74582,2705,11730,11406,2268,981,Tag0,unknown
1542899619566,0,85,1.86767578125E-5,50,48,41,68390,78810,74582,2705,11730,11406,2268,981,Tag0,unknown
1542899619568,0,76,1.669921875E-5,50,48,41,68390,78810,74582,2705,11730,11406,2268,981,Tag0,unknown
1542899619568,0,74,1.6259765625E-5,50,48,41,68390,78810,74582,2705,11730,11406,2268,981,Tag0,unknown
1542899619569,0,87,1.91162109375E-5,50,48,41,68390,78810,74582,2705,11730,11406,2268,981,Tag0,unknown
1542899619569,0,92,2.021484375E-5,50,48,41,68390,78810,74582,2705,11730,11406,2268,981,Tag0,unknown
1542899619569,0,89,1.95556640625E-5,50,48,41,68390,78810,74582,2705,11730,11406,2268,981,Tag0,unknown
1542899619570,0,92,2.021484375E-5,50,48,41,68390,78810,74582,2705,11730,11406,2268,981,Tag0,unknown
1542899619580,0,86,1.8896484375000003E-5,50,48,41,68390,78810,74582,2705,11730,11406,2268,981,Tag0,unknown
1542899619581,0,88,1.93359375E-5,50,48,41,68390,78810,74582,2705,11730,11406,2268,981,Tag0,unknown
1542899619581,0,74,1.6259765625E-5,50,48,41,68390,78810,74582,2705,11730,11406,2268,981,Tag0,unknown
1542899619581,0,37,8.1298828125E-6,50,48,41,68390,78810,74582,2705,11730,11406,2268,981,Tag0,unknown
1542899619582,0,9,1.9775390625E-6,50,48,41,68390,78810,74582,2705,11730,11406,2268,981,Tag0,unknown
1542899619583,0,11,2.4169921875E-6,50,48,41,68390,78810,74582,2705,11730,11406,2268,981,Tag0,unknown
1542899619583,0,32,7.03125E-6,50,48,41,68390,78810,74582,2705,11730,11406,2268,981,Tag0,unknown
1542899619583,0,40,8.7890625E-6,50,48,41,68390,78810,74582,2705,11730,11406,2268,981,Tag0,unknown
1542899619598,0,35,7.6904296875E-6,50,48,41,68390,78810,74582,2705,11730,11406,2268,981,Tag0,unknown
1542899619598,0,28,6.15234375E-6,50,48,41,68390,78810,74582,2705,11730,11406,2268,981,Tag0,unknown
1542899619598,0,24,5.2734375E-6,50,48,41,68390,78810,74582,2705,11730,11406,2268,981,Tag0,unknown
1542899619599,0,32,7.03125E-6,50,48,41,68390,78810,74582,2705,11730,11406,2268,981,Tag0,unknown
1542899619599,0,41,9.008789062499999E-6,50,48,41,68390,78810,74582,2705,11730,11406,2268,981,Tag0,unknown
1542899619599,0,65,1.42822265625E-5,50,48,41,68390,78810,74582,2705,11730,11406,2268,981,Tag0,unknown
1542899619599,0,106,2.3291015625000003E-5,50,48,41,68390,78810,74582,2705,11730,11406,2268,981,Tag0,unknown
1542899619600,0,-128,-2.8125E-5,50,48,41,68390,78810,74582,2705,11730,11406,2268,981,Tag0,unknown
1542899619601,0,100,2.197265625E-5,50,48,41,68390,78810,74582,2705,11730,11406,2268,981,Tag0,unknown
1542899619614,0,42,9.228515625000002E-6,50,48,41,68390,78810,74582,2705,11730,11406,2268,981,Tag0,unknown
1542899619614,0,26,5.712890625E-6,50,48,41,68390,78810,74582,2705,11730,11406,2268,981,Tag0,unknown
1542899619614,0,38,8.349609375E-6,50,48,41,68390,78810,74582,2705,11730,11406,2268,981,Tag0,unknown
1542899619615,0,52,1.142578125E-5,50,48,41,68390,78810,74582,2705,11730,11406,2268,981,Tag0,unknown
1542899619615,0,70,1.5380859375E-5,50,48,41,68390,78810,74582,2705,11730,11406,2268,981,Tag0,unknown
1542899619615,0,71,1.56005859375E-5,50,48,41,68390,78810,74582,2705,11730,11406,2268,981,Tag0,unknown
1542899619615,0,67,1.4721679687500002E-5,50,48,41,68390,78810,74582,2705,11730,11406,2268,981,Tag0,unknown
1542899619616,0,64,1.40625E-5,50,48,41,68390,78810,74582,2705,11730,11406,2268,981,Tag0,unknown
1542899619630,0,59,1.29638671875E-5,50,48,41,68390,78810,74582,2705,11730,11406,2268,981,Tag0,unknown
1542899619631,0,67,1.4721679687500002E-5,50,48,41,68390,78810,74582,2705,11730,11406,2268,981,Tag0,unknown
1542899619631,0,67,1.4721679687500002E-5,50,48,41,68390,78810,74582,2705,11730,11406,2268,981,Tag0,unknown
1542899619631,0,61,1.34033203125E-5,50,48,41,68390,78810,74582,2705,11730,11406,2268,981,Tag0,unknown
1542899619632,0,52,1.142578125E-5,50,48,41,68390,78810,74582,2705,11730,11406,2268,981,Tag0,unknown
1542899619632,0,43,9.448242187500001E-6,50,48,41,68390,78810,74582,2705,11730,11406,2268,981,Tag0,unknown
1542899619632,0,42,9.228515625000002E-6,50,48,41,68390,78810,74582,2705,11730,11406,2268,981,Tag0,unknown
1542899619632,0,53,1.1645507812500002E-5,50,48,41,68390,78810,74582,2705,11730,11406,2268,981,Tag0,unknown
1542899619633,0,65,1.42822265625E-5,50,48,41,68390,78810,74582,2705,11730,11406,2268,981,Tag0,unknown
1542899619648,0,43,9.448242187500001E-6,50,48,41,68390,78810,74582,2705,11730,11406,2268,981,Tag0,unknown
1542899619649,0,10,2.197265625E-6,50,48,41,68390,78810,74582,2705,11730,11406,2268,981,Tag0,unknown
1542899619649,0,9,1.9775390625E-6,50,48,41,68390,78810,74582,2705,11730,11406,2268,981,Tag0,unknown
1542899619650,0,34,7.4707031250000005E-6,50,48,41,68390,78810,74582,2705,11730,11406,2268,981,Tag0,unknown
1542899619650,0,43,9.448242187500001E-6,50,48,41,68390,78810,74582,2705,11730,11406,2268,981,Tag0,unknown
1542899619651,0,34,7.4707031250000005E-6,50,48,41,68390,78810,74582,2705,11730,11406,2268,981,Tag0,unknown
1542899619698,0,23,5.0537109375E-6,50,48,41,68390,78810,74582,2705,11730,11406,2268,981,Tag0,unknown
1542899619699,0,28,6.15234375E-6,50,48,41,68390,78810,74582,2705,11730,11406,2268,981,Tag0,unknown
1542899619722,0,36,7.91015625E-6,50,48,41,68390,78810,74582,2705,11730,11406,2268,981,Tag0,unknown
1542899619732,0,10,2.197265625E-6,50,48,41,68390,78810,74582,2705,11730,11406,2268,981,Tag0,unknown
1542899619732,0,-260,-5.712890625E-5,50,48,41,68390,78810,74582,2705,11730,11406,2268,981,Tag0,unknown
1542899619733,0,5,1.0986328125E-6,50,48,41,68390,78810,74582,2705,11730,11406,2268,981,Tag0,unknown
1542899619733,0,12,2.63671875E-6,50,48,41,68390,78810,74582,2705,11730,11406,2268,981,Tag0,unknown
1542899619734,0,13,2.8564453125E-6,50,48,41,68390,78810,74582,2705,11730,11406,2268,981,Tag0,unknown
1542899619734,0,11,2.4169921875E-6,50,48,41,68390,78810,74582,2705,11730,11406,2268,981,Tag0,unknown
1542899619734,0,13,2.8564453125E-6,50,48,41,68390,78810,74582,2705,11730,11406,2268,981,Tag0,unknown
1542899619735,0,18,3.955078125E-6,50,48,41,68390,78810,74582,2705,11730,11406,2268,981,Tag0,unknown
1542899619736,0,17,3.7353515625000003E-6,50,48,41,68390,78810,74582,2705,11730,11406,2268,981,Tag0,unknown
1542899619736,0,6,1.318359375E-6,50,48,41,68390,78810,74582,2705,11730,11406,2268,981,Tag0,unknown
1542899619737,0,-276,-6.064453125E-5,50,48,41,68390,78810,74582,2705,11730,11406,2268,981,Tag0,unknown
1542899619737,0,-268,-5.8886718750000006E-5,50,48,41,68390,78810,74582,2705,11730,11406,2268,981,Tag0,unknown
1542899619737,0,-259,-5.69091796875E-5,50,48,41,68390,78810,74582,2705,11730,11406,2268,981,Tag0,unknown
1542899619737,0,-280,-6.15234375E-5,50,48,41,68390,78810,74582,2705,11730,11406,2268,981,Tag0,unknown
1542899619738,0,-294,-6.4599609375E-5,50,48,41,68390,78810,74582,2705,11730,11406,2268,981,Tag0,unknown
1542899619738,0,-282,-6.1962890625E-5,50,48,41,68390,78810,74582,2705,11730,11406,2268,981,Tag0,unknown
1542899619739,0,-264,-5.80078125E-5,50,48,41,68390,78810,74582,2705,11730,11406,2268,981,Tag0,unknown
1542899619749,0,-266,-5.8447265625E-5,50,48,41,68390,78810,74582,2705,11730,11406,2268,981,Tag0,unknown
1542899619750,0,-279,-6.13037109375E-5,50,48,41,68390,78810,74582,2705,11730,11406,2268,981,Tag0,unknown
1542899619750,0,-294,-6.4599609375E-5,50,48,41,68390,78810,74582,2705,11730,11406,2268,981,Tag0,unknown
1542899619751,0,-298,-6.5478515625E-5,50,48,41,68390,78810,74582,2705,11730,11406,2268,981,Tag0,unknown
1542899619751,0,-284,-6.240234375E-5,50,48,41,68390,78810,74582,2705,11730,11406,2268,981,Tag0,unknown
1542899619751,0,-275,-6.04248046875E-5,50,48,41,68390,78810,74582,2705,11730,11406,2268,981,Tag0,unknown
1542899619752,0,-267,-5.86669921875E-5,50,48,41,68390,78810,74582,2705,11730,11406,2268,981,Tag0,unknown
1542899619753,0,9,1.9775390625E-6,50,48,41,68390,78810,74582,2705,11730,11406,2268,981,Tag0,unknown
1542899619753,0,26,5.712890625E-6,50,48,41,68390,78810,74582,2705,11730,11406,2268,981,Tag0,unknown
1542899619767,0,34,7.4707031250000005E-6,50,48,41,68390,78810,74582,2705,11730,11406,2268,981,Tag0,unknown
1542899619783,0,38,8.349609375E-6,50,48,41,68390,78810,74582,2705,11730,11406,2268,981,Tag0,unknown
1542899619801,0,40,8.7890625E-6,50,48,41,68390,78810,74582,2705,11730,11406,2268,981,Tag0,unknown
1542899619802,0,37,8.1298828125E-6,50,48,41,68390,78810,74582,2705,11730,11406,2268,981,Tag0,unknown
1542899619803,0,45,9.8876953125E-6,50,48,41,68390,78810,74582,2705,11730,11406,2268,981,Tag0,unknown
1542899619803,0,59,1.29638671875E-5,50,48,41,68390,78810,74582,2705,11730,11406,2268,981,Tag0,unknown
1542899619804,0,34,7.4707031250000005E-6,50,48,41,68390,78810,74582,2705,11730,11406,2268,981,Tag0,unknown
1542899619804,0,-261,-5.73486328125E-5,50,48,41,68390,78810,74582,2705,11730,11406,2268,981,Tag0,unknown
1542899619805,0,-276,-6.064453125E-5,50,48,41,68390,78810,74582,2705,11730,11406,2268,981,Tag0,unknown
1542899619805,0,-274,-6.0205078124999997E-5,50,48,41,68390,78810,74582,2705,11730,11406,2268,981,Tag0,unknown
1542899619806,0,-273,-5.998535156250001E-5,50,48,41,68390,78810,74582,2705,11730,11406,2268,981,Tag0,unknown
1542899619807,0,-284,-6.240234375E-5,50,48,41,68390,78810,74582,2705,11730,11406,2268,981,Tag0,unknown
1542899619808,0,-300,-6.591796875E-5,50,48,41,68390,78810,74582,2705,11730,11406,2268,981,Tag0,unknown
1542899619808,0,-286,-6.2841796875E-5,50,48,41,68390,78810,74582,2705,11730,11406,2268,981,Tag0,unknown
1542899619809,0,1,2.197265625E-7,50,48,41,68390,78810,74582,2705,11730,11406,2268,981,Tag0,unknown
1542899619831,0,24,5.2734375E-6,50,48,41,68390,78810,74582,2705,11730,11406,2268,981,Tag0,unknown
1542899619862,0,22,4.833984375E-6,50,48,41,68390,78810,74582,2705,11730,11406,2268,981,Tag0,unknown
1542899619881,0,4,8.7890625E-7,50,48,41,68390,78810,74582,2705,11730,11406,2268,981,Tag0,unknown
1542899619881,0,7,1.5380859375E-6,50,48,41,68390,78810,74582,2705,11730,11406,2268,981,Tag0,unknown
1542899619881,0,36,7.91015625E-6,50,48,41,68390,78810,74582,2705,11730,11406,2268,981,Tag0,unknown
1542899619881,0,55,1.20849609375E-5,50,48,41,68390,78810,74582,2705,11730,11406,2268,981,Tag0,unknown
1542899619882,0,42,9.228515625000002E-6,50,48,41,68390,78810,74582,2705,11730,11406,2268,981,Tag0,unknown
1542899619882,0,12,2.63671875E-6,50,48,41,68390,78810,74582,2705,11730,11406,2268,981,Tag0,unknown
1542899619882,0,12,2.63671875E-6,50,48,41,68390,78810,74582,2705,11730,11406,2268,981,Tag0,unknown
1542899619882,0,36,7.91015625E-6,50,48,41,68390,78810,74582,2705,11730,11406,2268,981,Tag0,unknown
1542899619882,0,43,9.448242187500001E-6,50,48,41,68390,78810,74582,2705,11730,11406,2268,981,Tag0,unknown
1542899619882,0,32,7.03125E-6,50,48,41,68390,78810,74582,2705,11730,11406,2268,981,Tag0,unknown
1542899619883,0,5,1.0986328125E-6,50,48,41,68390,78810,74582,2705,11730,11406,2268,981,Tag0,unknown
1542899619883,0,-258,-5.6689453125000004E-5,50,48,41,68390,78810,74582,2705,11730,11406,2268,981,Tag0,unknown
1542899619883,0,28,6.15234375E-6,50,48,41,68390,78810,74582,2705,11730,11406,2268,981,Tag0,unknown
1542899619883,0,58,1.2744140625E-5,50,48,41,68390,78810,74582,2705,11730,11406,2268,981,Tag0,unknown
1542899619883,0,48,1.0546875E-5,50,48,41,68390,78810,74582,2705,11730,11406,2268,981,Tag0,unknown
1542899619883,0,32,7.03125E-6,50,48,41,68390,78810,74582,2705,11730,11406,2268,981,Tag0,unknown
1542899619884,0,33,7.2509765625E-6,50,48,41,68390,78810,74582,2705,11730,11406,2268,981,Tag0,unknown
1542899619884,0,34,7.4707031250000005E-6,50,48,41,68390,78810,74582,2705,11730,11406,2268,981,Tag0,unknown
1542899619884,0,19,4.1748046875E-6,50,48,41,68390,78810,74582,2705,11730,11406,2268,981,Tag0,unknown
1542899619884,0,10,2.197265625E-6,50,48,41,68390,78810,74582,2705,11730,11406,2268,981,Tag0,unknown
1542899619884,0,11,2.4169921875E-6,50,48,41,68390,78810,74582,2705,11730,11406,2268,981,Tag0,unknown
1542899619884,0,20,4.39453125E-6,50,48,41,68390,78810,74582,2705,11730,11406,2268,981,Tag0,unknown
1542899619885,0,29,6.3720703125E-6,50,48,41,68390,78810,74582,2705,11730,11406,2268,981,Tag0,unknown
1542899619885,0,39,8.5693359375E-6,50,48,41,68390,78810,74582,2705,11730,11406,2268,981,Tag0,unknown
1542899619885,0,36,7.91015625E-6,50,48,41,68390,78810,74582,2705,11730,11406,2268,981,Tag0,unknown
1542899619885,0,4,8.7890625E-7,50,48,41,68390,78810,74582,2705,11730,11406,2268,981,Tag0,unknown
1542899619885,0,-279,-6.13037109375E-5,50,48,41,68390,78810,74582,2705,11730,11406,2268,981,Tag0,unknown
1542899619885,0,-266,-5.8447265625E-5,50,48,41,68390,78810,74582,2705,11730,11406,2268,981,Tag0,unknown
1542899619898,0,17,3.7353515625000003E-6,50,48,41,68390,78810,74582,2705,11730,11406,2268,981,Tag0,unknown
1542899619898,0,21,4.614257812500001E-6,50,48,41,68390,78810,74582,2705,11730,11406,2268,981,Tag0,unknown
1542899619898,0,2,4.39453125E-7,50,48,41,68390,78810,74582,2705,11730,11406,2268,981,Tag0,unknown
1542899619899,0,-274,-6.0205078124999997E-5,50,48,41,68390,78810,74582,2705,11730,11406,2268,981,Tag0,unknown
1542899619899,0,-278,-6.108398437500001E-5,50,48,41,68390,78810,74582,2705,11730,11406,2268,981,Tag0,unknown
1542899619899,0,-267,-5.86669921875E-5,50,48,41,68390,78810,74582,2705,11730,11406,2268,981,Tag0,unknown
1542899619899,0,-260,-5.712890625E-5,50,48,41,68390,78810,74582,2705,11730,11406,2268,981,Tag0,unknown
1542899619900,0,0,0.0,50,48,41,68390,78810,74582,2705,11730,11406,2268,981,Tag0,unknown
1542899619901,0,1,2.197265625E-7,50,48,41,68390,78810,74582,2705,11730,11406,2268,981,Tag0,unknown
1542899619901,0,2,4.39453125E-7,50,48,41,68390,78810,74582,2705,11730,11406,2268,981,Tag0,unknown
1542899619901,0,11,2.4169921875E-6,50,48,41,68390,78810,74582,2705,11730,11406,2268,981,Tag0,unknown
1542899619902,0,26,5.712890625E-6,50,48,41,68390,78810,74582,2705,11730,11406,2268,981,Tag0,unknown
1542899619902,0,32,7.03125E-6,50,48,41,68390,78810,74582,2705,11730,11406,2268,981,Tag0,unknown
1542899619902,0,17,3.7353515625000003E-6,50,48,41,68390,78810,74582,2705,11730,11406,2268,981,Tag0,unknown
1542899619902,0,1,2.197265625E-7,50,48,41,68390,78810,74582,2705,11730,11406,2268,981,Tag0,unknown
1542899619902,0,-258,-5.6689453125000004E-5,50,48,41,68390,78810,74582,2705,11730,11406,2268,981,Tag0,unknown
1542899619903,0,-260,-5.712890625E-5,50,48,41,68390,78810,74582,2705,11730,11406,2268,981,Tag0,unknown
1542899619903,0,-264,-5.80078125E-5,50,48,41,68390,78810,74582,2705,11730,11406,2268,981,Tag0,unknown
1542899619903,0,-262,-5.7568359375E-5,50,48,41,68390,78810,74582,2705,11730,11406,2268,981,Tag0,unknown
1542899619903,0,13,2.8564453125E-6,50,48,41,68390,78810,74582,2705,11730,11406,2268,981,Tag0,unknown
1542899619903,0,49,1.07666015625E-5,50,48,41,68390,78810,74582,2705,11730,11406,2268,981,Tag0,unknown
1542899619904,0,26,5.712890625E-6,50,48,41,68390,78810,74582,2705,11730,11406,2268,981,Tag0,unknown
1542899619904,0,-273,-5.998535156250001E-5,50,48,41,68390,78810,74582,2705,11730,11406,2268,981,Tag0,unknown
1542899619904,0,-280,-6.15234375E-5,50,48,41,68390,78810,74582,2705,11730,11406,2268,981,Tag0,unknown
1542899619904,0,-261,-5.73486328125E-5,50,48,41,68390,78810,74582,2705,11730,11406,2268,981,Tag0,unknown
1542899619904,0,17,3.7353515625000003E-6,50,48,41,68390,78810,74582,2705,11730,11406,2268,981,Tag0,unknown
1542899619905,0,20,4.39453125E-6,50,48,41,68390,78810,74582,2705,11730,11406,2268,981,Tag0,unknown
1542899619905,0,18,3.955078125E-6,50,48,41,68390,78810,74582,2705,11730,11406,2268,981,Tag0,unknown
1542899619905,0,11,2.4169921875E-6,50,48,41,68390,78810,74582,2705,11730,11406,2268,981,Tag0,unknown
1542899619905,0,1,2.197265625E-7,50,48,41,68390,78810,74582,2705,11730,11406,2268,981,Tag0,unknown
1542899619906,0,1,2.197265625E-7,50,48,41,68390,78810,74582,2705,11730,11406,2268,981,Tag0,unknown
1542899619906,0,12,2.63671875E-6,50,48,41,68390,78810,74582,2705,11730,11406,2268,981,Tag0,unknown
1542899619907,0,23,5.0537109375E-6,50,48,41,68390,78810,74582,2705,11730,11406,2268,981,Tag0,unknown
1542899619907,0,34,7.4707031250000005E-6,50,48,41,68390,78810,74582,2705,11730,11406,2268,981,Tag0,unknown
1542899619907,0,43,9.448242187500001E-6,50,48,41,68390,78810,74582,2705,11730,11406,2268,981,Tag0,unknown
1542899619907,0,49,1.07666015625E-5,50,48,41,68390,78810,74582,2705,11730,11406,2268,981,Tag0,unknown
1542899619908,0,51,1.1206054687499999E-5,50,48,41,68390,78810,74582,2705,11730,11406,2268,981,Tag0,unknown
1542899619914,0,52,1.142578125E-5,50,48,41,68390,78810,74582,2705,11730,11406,2268,981,Tag0,unknown
1542899619932,0,50,1.0986328125E-5,50,48,41,68390,78810,74582,2705,11730,11406,2268,981,Tag0,unknown
1542899619950,0,58,1.2744140625E-5,50,48,41,68390,78810,74582,2705,11730,11406,2268,981,Tag0,unknown
1542899619950,0,66,1.4501953125E-5,50,48,41,68390,78810,74582,2705,11730,11406,2268,981,Tag0,unknown
1542899619951,0,54,1.1865234375000001E-5,50,48,41,68390,78810,74582,2705,11730,11406,2268,981,Tag0,unknown
1542899619951,0,44,9.66796875E-6,50,48,41,68390,78810,74582,2705,11730,11406,2268,981,Tag0,unknown
1542899619952,0,41,9.008789062499999E-6,50,48,41,68390,78810,74582,2705,11730,11406,2268,981,Tag0,unknown
1542899619952,0,41,9.008789062499999E-6,50,48,41,68390,78810,74582,2705,11730,11406,2268,981,Tag0,unknown
1542899619952,0,48,1.0546875E-5,50,48,41,68390,78810,74582,2705,11730,11406,2268,981,Tag0,unknown
1542899619953,0,38,8.349609375E-6,50,48,41,68390,78810,74582,2705,11730,11406,2268,981,Tag0,unknown
1542899619953,0,37,8.1298828125E-6,50,48,41,68390,78810,74582,2705,11730,11406,2268,981,Tag0,unknown
1542899619954,0,38,8.349609375E-6,50,48,41,68390,78810,74582,2705,11730,11406,2268,981,Tag0,unknown
1542899619954,0,33,7.2509765625E-6,50,48,41,68390,78810,74582,2705,11730,11406,2268,981,Tag0,unknown
1542899619956,0,34,7.4707031250000005E-6,50,48,41,68390,78810,74582,2705,11730,11406,2268,981,Tag0,unknown
1542899619956,0,44,9.66796875E-6,50,48,41,68390,78810,74582,2705,11730,11406,2268,981,Tag0,unknown
1542899619957,0,58,1.2744140625E-5,50,48,41,68390,78810,74582,2705,11730,11406,2268,981,Tag0,unknown
1542899619957,0,59,1.29638671875E-5,50,48,41,68390,78810,74582,2705,11730,11406,2268,981,Tag0,unknown
1542899619957,0,56,1.23046875E-5,50,48,41,68390,78810,74582,2705,11730,11406,2268,981,Tag0,unknown
1542899619958,0,52,1.142578125E-5,50,48,41,68390,78810,74582,2705,11730,11406,2268,981,Tag0,unknown
1542899619958,0,49,1.07666015625E-5,50,48,41,68390,78810,74582,2705,11730,11406,2268,981,Tag0,unknown
1542899619959,0,52,1.142578125E-5,50,48,41,68390,78810,74582,2705,11730,11406,2268,981,Tag0,unknown
1542899619959,0,44,9.66796875E-6,50,48,41,68390,78810,74582,2705,11730,11406,2268,981,Tag0,unknown
1542899619959,0,34,7.4707031250000005E-6,50,48,41,68390,78810,74582,2705,11730,11406,2268,981,Tag0,unknown
1542899619960,0,41,9.008789062499999E-6,50,48,41,68390,78810,74582,2705,11730,11406,2268,981,Tag0,unknown
1542899619960,0,51,1.1206054687499999E-5,50,48,41,68390,78810,74582,2705,11730,11406,2268,981,Tag0,unknown
1542899619961,0,36,7.91015625E-6,50,48,41,68390,78810,74582,2705,11730,11406,2268,981,Tag0,unknown
1542899619961,0,16,3.515625E-6,50,48,41,68390,78810,74582,2705,11730,11406,2268,981,Tag0,unknown
1542899619962,0,-260,-5.712890625E-5,50,48,41,68390,78810,74582,2705,11730,11406,2268,981,Tag0,unknown
1542899619962,0,-264,-5.80078125E-5,50,48,41,68390,78810,74582,2705,11730,11406,2268,981,Tag0,unknown
1542899619963,0,8,1.7578125E-6,50,48,41,68390,78810,74582,2705,11730,11406,2268,981,Tag0,unknown
1542899619963,0,26,5.712890625E-6,50,48,41,68390,78810,74582,2705,11730,11406,2268,981,Tag0,unknown
1542899619990,0,36,7.91015625E-6,50,48,41,68390,78810,74582,2705,11730,11406,2268,981,Tag0,unknown
1542899620045,0,25,5.4931640625E-6,50,48,41,68390,78810,74582,2705,11730,11406,2268,981,Tag0,unknown
1542899620046,0,7,1.5380859375E-6,50,48,41,68390,78810,74582,2705,11730,11406,2268,981,Tag0,unknown
1542899620046,0,-265,-5.82275390625E-5,50,48,41,68390,78810,74582,2705,11730,11406,2268,981,Tag0,unknown
1542899620047,0,-263,-5.7788085937500005E-5,50,48,41,68390,78810,74582,2705,11730,11406,2268,981,Tag0,unknown
1542899620047,0,9,1.9775390625E-6,50,48,41,68390,78810,74582,2705,11730,11406,2268,981,Tag0,unknown
1542899620047,0,26,5.712890625E-6,50,48,41,68390,78810,74582,2705,11730,11406,2268,981,Tag0,unknown
1542899620047,0,22,4.833984375E-6,50,48,41,68390,78810,74582,2705,11730,11406,2268,981,Tag0,unknown
1542899620047,0,17,3.7353515625000003E-6,50,48,41,68390,78810,74582,2705,11730,11406,2268,981,Tag0,unknown
1542899620064,0,22,4.833984375E-6,50,48,41,68390,78810,74582,2705,11730,11406,2268,981,Tag0,unknown
1542899620095,0,20,4.39453125E-6,50,48,41,68390,78810,74582,2705,11730,11406,2268,981,Tag0,unknown
1542899620101,0,3,6.591796875E-7,50,48,41,68390,78810,74582,2705,11730,11406,2268,981,Tag0,unknown
1542899620102,0,-261,-5.73486328125E-5,50,48,41,68390,78810,74582,2705,11730,11406,2268,981,Tag0,unknown
1542899620103,0,2,4.39453125E-7,50,48,41,68390,78810,74582,2705,11730,11406,2268,981,Tag0,unknown
1542899620103,0,28,6.15234375E-6,50,48,41,68390,78810,74582,2705,11730,11406,2268,981,Tag0,unknown
1542899620103,0,55,1.20849609375E-5,50,48,41,68390,78810,74582,2705,11730,11406,2268,981,Tag0,unknown
1542899620118,0,69,1.51611328125E-5,50,48,41,68390,78810,74582,2705,11730,11406,2268,981,Tag0,unknown
1542899620119,0,87,1.91162109375E-5,50,48,41,68390,78810,74582,2705,11730,11406,2268,981,Tag0,unknown
1542899620119,0,118,2.5927734375E-5,50,48,41,68390,78810,74582,2705,11730,11406,2268,981,Tag0,unknown
1542899620120,0,-109,-2.39501953125E-5,50,48,41,68390,78810,74582,2705,11730,11406,2268,981,Tag0,unknown
1542899620120,0,-111,-2.43896484375E-5,50,48,41,68390,78810,74582,2705,11730,11406,2268,981,Tag0,unknown
1542899620121,0,124,2.724609375E-5,50,48,41,68390,78810,74582,2705,11730,11406,2268,981,Tag0,unknown
1542899620121,0,118,2.5927734375E-5,50,48,41,68390,78810,74582,2705,11730,11406,2268,981,Tag0,unknown
1542899620121,0,122,2.6806640625E-5,50,48,41,68390,78810,74582,2705,11730,11406,2268,981,Tag0,unknown
1542899620122,0,118,2.5927734375E-5,50,48,41,68390,78810,74582,2705,11730,11406,2268,981,Tag0,unknown
1542899620122,0,117,2.5708007812499998E-5,50,48,41,68390,78810,74582,2705,11730,11406,2268,981,Tag0,unknown
1542899620123,0,120,2.63671875E-5,50,48,41,68390,78810,74582,2705,11730,11406,2268,981,Tag0,unknown
1542899620123,0,108,2.3730468750000002E-5,50,48,41,68390,78810,74582,2705,11730,11406,2268,981,Tag0,unknown
1542899620123,0,81,1.77978515625E-5,50,48,41,68390,78810,74582,2705,11730,11406,2268,981,Tag0,unknown
1542899620124,0,51,1.1206054687499999E-5,50,48,41,68390,78810,74582,2705,11730,11406,2268,981,Tag0,unknown
1542899620124,0,23,5.0537109375E-6,50,48,41,68390,78810,74582,2705,11730,11406,2268,981,Tag0,unknown
1542899620125,0,7,1.5380859375E-6,50,48,41,68390,78810,74582,2705,11730,11406,2268,981,Tag0,unknown
1542899620125,0,21,4.614257812500001E-6,50,48,41,68390,78810,74582,2705,11730,11406,2268,981,Tag0,unknown
1542899620126,0,27,5.9326171875000005E-6,50,48,41,68390,78810,74582,2705,11730,11406,2268,981,Tag0,unknown
1542899620126,0,9,1.9775390625E-6,50,48,41,68390,78810,74582,2705,11730,11406,2268,981,Tag0,unknown
1542899620126,0,-264,-5.80078125E-5,50,48,41,68390,78810,74582,2705,11730,11406,2268,981,Tag0,unknown
1542899620127,0,-264,-5.80078125E-5,50,48,41,68390,78810,74582,2705,11730,11406,2268,981,Tag0,unknown
1542899620127,0,4,8.7890625E-7,50,48,41,68390,78810,74582,2705,11730,11406,2268,981,Tag0,unknown
1542899620127,0,21,4.614257812500001E-6,50,48,41,68390,78810,74582,2705,11730,11406,2268,981,Tag0,unknown
1542899620128,0,51,1.1206054687499999E-5,50,48,41,68390,78810,74582,2705,11730,11406,2268,981,Tag0,unknown
1542899620128,0,82,1.8017578124999998E-5,50,48,41,68390,78810,74582,2705,11730,11406,2268,981,Tag0,unknown
1542899620128,0,88,1.93359375E-5,50,48,41,68390,78810,74582,2705,11730,11406,2268,981,Tag0,unknown
1542899620129,0,80,1.7578125E-5,50,48,41,68390,78810,74582,2705,11730,11406,2268,981,Tag0,unknown
1542899620129,0,65,1.42822265625E-5,50,48,41,68390,78810,74582,2705,11730,11406,2268,981,Tag0,unknown
1542899620130,0,43,9.448242187500001E-6,50,48,41,68390,78810,74582,2705,11730,11406,2268,981,Tag0,unknown
1542899620130,0,23,5.0537109375E-6,50,48,41,68390,78810,74582,2705,11730,11406,2268,981,Tag0,unknown
1542899620130,0,11,2.4169921875E-6,50,48,41,68390,78810,74582,2705,11730,11406,2268,981,Tag0,unknown
1542899620131,0,1,2.197265625E-7,50,48,41,68390,78810,74582,2705,11730,11406,2268,981,Tag0,unknown
1542899620131,0,-270,-5.9326171875E-5,50,48,41,68390,78810,74582,2705,11730,11406,2268,981,Tag0,unknown
1542899620132,0,-292,-6.416015625000001E-5,50,48,41,68390,78810,74582,2705,11730,11406,2268,981,Tag0,unknown
1542899620132,0,-327,-7.18505859375E-5,50,48,41,68390,78810,74582,2705,11730,11406,2268,981,Tag0,unknown
1542899620173,0,-332,-7.294921875E-5,50,48,41,68390,78810,74582,2705,11730,11406,2268,981,Tag0,unknown
1542899620182,0,-300,-6.591796875E-5,50,48,41,68390,78810,74582,2705,11730,11406,2268,981,Tag0,unknown
1542899620182,0,-270,-5.9326171875E-5,50,48,41,68390,78810,74582,2705,11730,11406,2268,981,Tag0,unknown
1542899620182,0,8,1.7578125E-6,50,48,41,68390,78810,74582,2705,11730,11406,2268,981,Tag0,unknown
1542899620182,0,28,6.15234375E-6,50,48,41,68390,78810,74582,2705,11730,11406,2268,981,Tag0,unknown
1542899620183,0,37,8.1298828125E-6,50,48,41,68390,78810,74582,2705,11730,11406,2268,981,Tag0,unknown
1542899620183,0,42,9.228515625000002E-6,50,48,41,68390,78810,74582,2705,11730,11406,2268,981,Tag0,unknown
1542899620183,0,38,8.349609375E-6,50,48,41,68390,78810,74582,2705,11730,11406,2268,981,Tag0,unknown
1542899620183,0,13,2.8564453125E-6,50,48,41,68390,78810,74582,2705,11730,11406,2268,981,Tag0,unknown
1542899620183,0,-262,-5.7568359375E-5,50,48,41,68390,78810,74582,2705,11730,11406,2268,981,Tag0,unknown
1542899620184,0,-266,-5.8447265625E-5,50,48,41,68390,78810,74582,2705,11730,11406,2268,981,Tag0,unknown
1542899620184,0,8,1.7578125E-6,50,48,41,68390,78810,74582,2705,11730,11406,2268,981,Tag0,unknown
1542899620184,0,22,4.833984375E-6,50,48,41,68390,78810,74582,2705,11730,11406,2268,981,Tag0,unknown
1542899620185,0,18,3.955078125E-6,50,48,41,68390,78810,74582,2705,11730,11406,2268,981,Tag0,unknown
1542899620185,0,10,2.197265625E-6,50,48,41,68390,78810,74582,2705,11730,11406,2268,981,Tag0,unknown
1542899620185,0,22,4.833984375E-6,50,48,41,68390,78810,74582,2705,11730,11406,2268,981,Tag0,unknown
1542899620185,0,48,1.0546875E-5,50,48,41,68390,78810,74582,2705,11730,11406,2268,981,Tag0,unknown
1542899620185,0,55,1.20849609375E-5,50,48,41,68390,78810,74582,2705,11730,11406,2268,981,Tag0,unknown
1542899620186,0,44,9.66796875E-6,50,48,41,68390,78810,74582,2705,11730,11406,2268,981,Tag0,unknown
1542899620186,0,37,8.1298828125E-6,50,48,41,68390,78810,74582,2705,11730,11406,2268,981,Tag0,unknown
1542899620186,0,41,9.008789062499999E-6,50,48,41,68390,78810,74582,2705,11730,11406,2268,981,Tag0,unknown
1542899620186,0,43,9.448242187500001E-6,50,48,41,68390,78810,74582,2705,11730,11406,2268,981,Tag0,unknown
1542899620187,0,17,3.7353515625000003E-6,50,48,41,68390,78810,74582,2705,11730,11406,2268,981,Tag0,unknown
1542899620187,0,-266,-5.8447265625E-5,50,48,41,68390,78810,74582,2705,11730,11406,2268,981,Tag0,unknown
1542899620187,0,-281,-6.17431640625E-5,50,48,41,68390,78810,74582,2705,11730,11406,2268,981,Tag0,unknown
1542899620187,0,-296,-6.50390625E-5,50,48,41,68390,78810,74582,2705,11730,11406,2268,981,Tag0,unknown
1542899620198,0,-306,-6.723632812500001E-5,50,48,41,68390,78810,74582,2705,11730,11406,2268,981,Tag0,unknown
1542899620198,0,-278,-6.108398437500001E-5,50,48,41,68390,78810,74582,2705,11730,11406,2268,981,Tag0,unknown
1542899620199,0,0,0.0,50,48,41,68390,78810,74582,2705,11730,11406,2268,981,Tag0,unknown
1542899620199,0,-263,-5.7788085937500005E-5,50,48,41,68390,78810,74582,2705,11730,11406,2268,981,Tag0,unknown
1542899620199,0,-280,-6.15234375E-5,50,48,41,68390,78810,74582,2705,11730,11406,2268,981,Tag0,unknown
1542899620199,0,-283,-6.218261718750001E-5,50,48,41,68390,78810,74582,2705,11730,11406,2268,981,Tag0,unknown
1542899620199,0,-265,-5.82275390625E-5,50,48,41,68390,78810,74582,2705,11730,11406,2268,981,Tag0,unknown
1542899620199,0,6,1.318359375E-6,50,48,41,68390,78810,74582,2705,11730,11406,2268,981,Tag0,unknown
1542899620200,0,9,1.9775390625E-6,50,48,41,68390,78810,74582,2705,11730,11406,2268,981,Tag0,unknown
1542899620200,0,10,2.197265625E-6,50,48,41,68390,78810,74582,2705,11730,11406,2268,981,Tag0,unknown
1542899620200,0,-280,-6.15234375E-5,50,48,41,68390,78810,74582,2705,11730,11406,2268,981,Tag0,unknown
1542899620200,0,-317,-6.96533203125E-5,50,48,41,68390,78810,74582,2705,11730,11406,2268,981,Tag0,unknown
1542899620200,0,-315,-6.92138671875E-5,50,48,41,68390,78810,74582,2705,11730,11406,2268,981,Tag0,unknown
1542899620200,0,-284,-6.240234375E-5,50,48,41,68390,78810,74582,2705,11730,11406,2268,981,Tag0,unknown
1542899620200,0,-263,-5.7788085937500005E-5,50,48,41,68390,78810,74582,2705,11730,11406,2268,981,Tag0,unknown
1542899620201,0,-266,-5.8447265625E-5,50,48,41,68390,78810,74582,2705,11730,11406,2268,981,Tag0,unknown
1542899620201,0,-278,-6.108398437500001E-5,50,48,41,68390,78810,74582,2705,11730,11406,2268,981,Tag0,unknown
1542899620201,0,-270,-5.9326171875E-5,50,48,41,68390,78810,74582,2705,11730,11406,2268,981,Tag0,unknown
1542899620201,0,9,1.9775390625E-6,50,48,41,68390,78810,74582,2705,11730,11406,2268,981,Tag0,unknown
1542899620201,0,32,7.03125E-6,50,48,41,68390,78810,74582,2705,11730,11406,2268,981,Tag0,unknown
1542899620201,0,28,6.15234375E-6,50,48,41,68390,78810,74582,2705,11730,11406,2268,981,Tag0,unknown
1542899620201,0,18,3.955078125E-6,50,48,41,68390,78810,74582,2705,11730,11406,2268,981,Tag0,unknown
1542899620201,0,11,2.4169921875E-6,50,48,41,68390,78810,74582,2705,11730,11406,2268,981,Tag0,unknown
1542899620202,0,16,3.515625E-6,50,48,41,68390,78810,74582,2705,11730,11406,2268,981,Tag0,unknown
1542899620202,0,34,7.4707031250000005E-6,50,48,41,68390,78810,74582,2705,11730,11406,2268,981,Tag0,unknown
1542899620202,0,44,9.66796875E-6,50,48,41,68390,78810,74582,2705,11730,11406,2268,981,Tag0,unknown
1542899620202,0,33,7.2509765625E-6,50,48,41,68390,78810,74582,2705,11730,11406,2268,981,Tag0,unknown
1542899620202,0,37,8.1298828125E-6,50,48,41,68390,78810,74582,2705,11730,11406,2268,981,Tag0,unknown
1542899620202,0,67,1.4721679687500002E-5,50,48,41,68390,78810,74582,2705,11730,11406,2268,981,Tag0,unknown
1542899620202,0,88,1.93359375E-5,50,48,41,68390,78810,74582,2705,11730,11406,2268,981,Tag0,unknown
1542899620203,0,82,1.8017578124999998E-5,50,48,41,68390,78810,74582,2705,11730,11406,2268,981,Tag0,unknown
1542899620203,0,59,1.29638671875E-5,50,48,41,68390,78810,74582,2705,11730,11406,2268,981,Tag0,unknown
1542899620203,0,48,1.0546875E-5,50,48,41,68390,78810,74582,2705,11730,11406,2268,981,Tag0,unknown
1542899620203,0,61,1.34033203125E-5,50,48,41,68390,78810,74582,2705,11730,11406,2268,981,Tag0,unknown
1542899620203,0,84,1.8457031250000004E-5,50,48,41,68390,78810,74582,2705,11730,11406,2268,981,Tag0,unknown
1542899620203,0,75,1.64794921875E-5,50,48,41,68390,78810,74582,2705,11730,11406,2268,981,Tag0,unknown
1542899620203,0,39,8.5693359375E-6,50,48,41,68390,78810,74582,2705,11730,11406,2268,981,Tag0,unknown
1542899620203,0,10,2.197265625E-6,50,48,41,68390,78810,74582,2705,11730,11406,2268,981,Tag0,unknown
1542899620204,0,17,3.7353515625000003E-6,50,48,41,68390,78810,74582,2705,11730,11406,2268,981,Tag0,unknown
1542899620204,0,22,4.833984375E-6,50,48,41,68390,78810,74582,2705,11730,11406,2268,981,Tag0,unknown
1542899620204,0,26,5.712890625E-6,50,48,41,68390,78810,74582,2705,11730,11406,2268,981,Tag0,unknown
1542899620204,0,26,5.712890625E-6,50,48,41,68390,78810,74582,2705,11730,11406,2268,981,Tag0,unknown
1542899620204,0,13,2.8564453125E-6,50,48,41,68390,78810,74582,2705,11730,11406,2268,981,Tag0,unknown
1542899620204,0,11,2.4169921875E-6,50,48,41,68390,78810,74582,2705,11730,11406,2268,981,Tag0,unknown
1542899620204,0,16,3.515625E-6,50,48,41,68390,78810,74582,2705,11730,11406,2268,981,Tag0,unknown
1542899620204,0,4,8.7890625E-7,50,48,41,68390,78810,74582,2705,11730,11406,2268,981,Tag0,unknown
1542899620205,0,-258,-5.6689453125000004E-5,50,48,41,68390,78810,74582,2705,11730,11406,2268,981,Tag0,unknown
1542899620205,0,21,4.614257812500001E-6,50,48,41,68390,78810,74582,2705,11730,11406,2268,981,Tag0,unknown
1542899620205,0,59,1.29638671875E-5,50,48,41,68390,78810,74582,2705,11730,11406,2268,981,Tag0,unknown
1542899620205,0,71,1.56005859375E-5,50,48,41,68390,78810,74582,2705,11730,11406,2268,981,Tag0,unknown
1542899620205,0,71,1.56005859375E-5,50,48,41,68390,78810,74582,2705,11730,11406,2268,981,Tag0,unknown
1542899620205,0,76,1.669921875E-5,50,48,41,68390,78810,74582,2705,11730,11406,2268,981,Tag0,unknown
1542899620205,0,82,1.8017578124999998E-5,50,48,41,68390,78810,74582,2705,11730,11406,2268,981,Tag0,unknown
1542899620206,0,82,1.8017578124999998E-5,50,48,41,68390,78810,74582,2705,11730,11406,2268,981,Tag0,unknown
1542899620206,0,83,1.82373046875E-5,50,48,41,68390,78810,74582,2705,11730,11406,2268,981,Tag0,unknown
1542899620206,0,88,1.93359375E-5,50,48,41,68390,78810,74582,2705,11730,11406,2268,981,Tag0,unknown
1542899620206,0,103,2.26318359375E-5,50,48,41,68390,78810,74582,2705,11730,11406,2268,981,Tag0,unknown
1542899620209,0,106,2.3291015625000003E-5,61,48,41,71043,14389,18387,29740,5846,22192,7402,2965,Tag0,unknown
1542899620209,0,102,2.2412109374999998E-5,61,48,41,71043,14389,18387,29740,5846,22192,7402,2965,Tag0,unknown
1542899620209,0,112,2.4609375E-5,61,48,41,71043,14389,18387,29740,5846,22192,7402,2965,Tag0,unknown
1542899620209,0,-128,-2.8125E-5,61,48,41,71043,14389,18387,29740,5846,22192,7402,2965,Tag0,unknown
1542899620210,0,122,2.6806640625E-5,61,48,41,71043,14389,18387,29740,5846,22192,7402,2965,Tag0,unknown
1542899620210,0,121,2.6586914062500003E-5,61,48,41,71043,14389,18387,29740,5846,22192,7402,2965,Tag0,unknown
1542899620210,0,-112,-2.4609375E-5,61,48,41,71043,14389,18387,29740,5846,22192,7402,2965,Tag0,unknown
1542899620219,0,-87,-1.91162109375E-5,61,48,41,71043,14389,18387,29740,5846,22192,7402,2965,Tag0,unknown
1542899620220,0,-71,-1.56005859375E-5,61,48,41,71043,14389,18387,29740,5846,22192,7402,2965,Tag0,unknown
1542899620220,0,-88,-1.93359375E-5,61,48,41,71043,14389,18387,29740,5846,22192,7402,2965,Tag0,unknown
1542899620220,0,-112,-2.4609375E-5,61,48,41,71043,14389,18387,29740,5846,22192,7402,2965,Tag0,unknown
1542899620220,0,-119,-2.6147460937500004E-5,61,48,41,71043,14389,18387,29740,5846,22192,7402,2965,Tag0,unknown
1542899620220,0,-119,-2.6147460937500004E-5,61,48,41,71043,14389,18387,29740,5846,22192,7402,2965,Tag0,unknown
1542899620220,0,-116,-2.548828125E-5,61,48,41,71043,14389,18387,29740,5846,22192,7402,2965,Tag0,unknown
1542899620220,0,-120,-2.63671875E-5,61,48,41,71043,14389,18387,29740,5846,22192,7402,2965,Tag0,unknown
1542899620221,0,120,2.63671875E-5,61,48,41,71043,14389,18387,29740,5846,22192,7402,2965,Tag0,unknown
1542899620221,0,116,2.548828125E-5,61,48,41,71043,14389,18387,29740,5846,22192,7402,2965,Tag0,unknown
1542899620221,0,-127,-2.79052734375E-5,61,48,41,71043,14389,18387,29740,5846,22192,7402,2965,Tag0,unknown
1542899620221,0,-109,-2.39501953125E-5,61,48,41,71043,14389,18387,29740,5846,22192,7402,2965,Tag0,unknown
1542899620233,0,-108,-2.3730468750000002E-5,61,48,41,71043,14389,18387,29740,5846,22192,7402,2965,Tag0,unknown
1542899620233,0,-126,-2.7685546875E-5,61,48,41,71043,14389,18387,29740,5846,22192,7402,2965,Tag0,unknown
1542899620233,0,-126,-2.7685546875E-5,61,48,41,71043,14389,18387,29740,5846,22192,7402,2965,Tag0,unknown
1542899620233,0,-125,-2.74658203125E-5,61,48,41,71043,14389,18387,29740,5846,22192,7402,2965,Tag0,unknown
1542899620233,0,-108,-2.3730468750000002E-5,61,48,41,71043,14389,18387,29740,5846,22192,7402,2965,Tag0,unknown
1542899620234,0,-91,-1.99951171875E-5,61,48,41,71043,14389,18387,29740,5846,22192,7402,2965,Tag0,unknown
1542899620234,0,-75,-1.64794921875E-5,61,48,41,71043,14389,18387,29740,5846,22192,7402,2965,Tag0,unknown
1542899620234,0,-62,-1.3623046875E-5,61,48,41,71043,14389,18387,29740,5846,22192,7402,2965,Tag0,unknown
1542899620249,0,-76,-1.669921875E-5,61,48,41,71043,14389,18387,29740,5846,22192,7402,2965,Tag0,unknown
1542899620250,0,-90,-1.9775390625E-5,61,48,41,71043,14389,18387,29740,5846,22192,7402,2965,Tag0,unknown
1542899620250,0,-78,-1.7138671875E-5,61,48,41,71043,14389,18387,29740,5846,22192,7402,2965,Tag0,unknown
1542899620250,0,-48,-1.0546875E-5,61,48,41,71043,14389,18387,29740,5846,22192,7402,2965,Tag0,unknown
1542899620250,0,-46,-1.0107421875E-5,61,48,41,71043,14389,18387,29740,5846,22192,7402,2965,Tag0,unknown
1542899620250,0,-72,-1.58203125E-5,61,48,41,71043,14389,18387,29740,5846,22192,7402,2965,Tag0,unknown
1542899620250,0,-92,-2.021484375E-5,61,48,41,71043,14389,18387,29740,5846,22192,7402,2965,Tag0,unknown
1542899620251,0,-89,-1.95556640625E-5,61,48,41,71043,14389,18387,29740,5846,22192,7402,2965,Tag0,unknown
1542899620265,0,-78,-1.7138671875E-5,61,48,41,71043,14389,18387,29740,5846,22192,7402,2965,Tag0,unknown
1542899620265,0,-102,-2.2412109374999998E-5,61,48,41,71043,14389,18387,29740,5846,22192,7402,2965,Tag0,unknown
1542899620266,0,116,2.548828125E-5,61,48,41,71043,14389,18387,29740,5846,22192,7402,2965,Tag0,unknown
1542899620266,0,102,2.2412109374999998E-5,61,48,41,71043,14389,18387,29740,5846,22192,7402,2965,Tag0,unknown
1542899620266,0,120,2.63671875E-5,61,48,41,71043,14389,18387,29740,5846,22192,7402,2965,Tag0,unknown
1542899620266,0,-122,-2.6806640625E-5,61,48,41,71043,14389,18387,29740,5846,22192,7402,2965,Tag0,unknown
1542899620267,0,-118,-2.5927734375E-5,61,48,41,71043,14389,18387,29740,5846,22192,7402,2965,Tag0,unknown
1542899620267,0,-127,-2.79052734375E-5,61,48,41,71043,14389,18387,29740,5846,22192,7402,2965,Tag0,unknown
1542899620282,0,102,2.2412109374999998E-5,61,48,41,71043,14389,18387,29740,5846,22192,7402,2965,Tag0,unknown
1542899620282,0,91,1.99951171875E-5,61,48,41,71043,14389,18387,29740,5846,22192,7402,2965,Tag0,unknown
1542899620282,0,98,2.1533203125E-5,61,48,41,71043,14389,18387,29740,5846,22192,7402,2965,Tag0,unknown
1542899620282,0,100,2.197265625E-5,61,48,41,71043,14389,18387,29740,5846,22192,7402,2965,Tag0,unknown
1542899620283,0,88,1.93359375E-5,61,48,41,71043,14389,18387,29740,5846,22192,7402,2965,Tag0,unknown
1542899620283,0,74,1.6259765625E-5,61,48,41,71043,14389,18387,29740,5846,22192,7402,2965,Tag0,unknown
1542899620283,0,67,1.4721679687500002E-5,61,48,41,71043,14389,18387,29740,5846,22192,7402,2965,Tag0,unknown
1542899620283,0,72,1.58203125E-5,61,48,41,71043,14389,18387,29740,5846,22192,7402,2965,Tag0,unknown
1542899620283,0,77,1.69189453125E-5,61,48,41,71043,14389,18387,29740,5846,22192,7402,2965,Tag0,unknown
1542899620301,0,72,1.58203125E-5,61,48,41,71043,14389,18387,29740,5846,22192,7402,2965,Tag0,unknown
1542899620301,0,70,1.5380859375E-5,61,48,41,71043,14389,18387,29740,5846,22192,7402,2965,Tag0,unknown
1542899620301,0,84,1.8457031250000004E-5,61,48,41,71043,14389,18387,29740,5846,22192,7402,2965,Tag0,unknown
1542899620301,0,85,1.86767578125E-5,61,48,41,71043,14389,18387,29740,5846,22192,7402,2965,Tag0,unknown
1542899620302,0,68,1.4941406250000001E-5,61,48,41,71043,14389,18387,29740,5846,22192,7402,2965,Tag0,unknown
1542899620302,0,67,1.4721679687500002E-5,61,48,41,71043,14389,18387,29740,5846,22192,7402,2965,Tag0,unknown
1542899620302,0,73,1.6040039062500002E-5,61,48,41,71043,14389,18387,29740,5846,22192,7402,2965,Tag0,unknown
1542899620302,0,72,1.58203125E-5,61,48,41,71043,14389,18387,29740,5846,22192,7402,2965,Tag0,unknown
1542899620302,0,59,1.29638671875E-5,61,48,41,71043,14389,18387,29740,5846,22192,7402,2965,Tag0,unknown
1542899620316,0,37,8.1298828125E-6,61,48,41,71043,14389,18387,29740,5846,22192,7402,2965,Tag0,unknown
1542899620317,0,16,3.515625E-6,61,48,41,71043,14389,18387,29740,5846,22192,7402,2965,Tag0,unknown
1542899620317,0,19,4.1748046875E-6,61,48,41,71043,14389,18387,29740,5846,22192,7402,2965,Tag0,unknown
1542899620317,0,20,4.39453125E-6,61,48,41,71043,14389,18387,29740,5846,22192,7402,2965,Tag0,unknown
1542899620318,0,0,0.0,61,48,41,71043,14389,18387,29740,5846,22192,7402,2965,Tag0,unknown
1542899620318,0,-260,-5.712890625E-5,61,48,41,71043,14389,18387,29740,5846,22192,7402,2965,Tag0,unknown
1542899620318,0,21,4.614257812500001E-6,61,48,41,71043,14389,18387,29740,5846,22192,7402,2965,Tag0,unknown
1542899620318,0,60,1.318359375E-5,61,48,41,71043,14389,18387,29740,5846,22192,7402,2965,Tag0,unknown
1542899620333,0,108,2.3730468750000002E-5,61,48,41,71043,14389,18387,29740,5846,22192,7402,2965,Tag0,unknown
1542899620334,0,-121,-2.6586914062500003E-5,61,48,41,71043,14389,18387,29740,5846,22192,7402,2965,Tag0,unknown
1542899620335,0,121,2.6586914062500003E-5,61,48,41,71043,14389,18387,29740,5846,22192,7402,2965,Tag0,unknown
1542899620335,0,118,2.5927734375E-5,61,48,41,71043,14389,18387,29740,5846,22192,7402,2965,Tag0,unknown
1542899620335,0,-119,-2.6147460937500004E-5,61,48,41,71043,14389,18387,29740,5846,22192,7402,2965,Tag0,unknown
1542899620336,0,-124,-2.724609375E-5,61,48,41,71043,14389,18387,29740,5846,22192,7402,2965,Tag0,unknown
1542899620336,0,96,2.109375E-5,61,48,41,71043,14389,18387,29740,5846,22192,7402,2965,Tag0,unknown
1542899620336,0,71,1.56005859375E-5,61,48,41,71043,14389,18387,29740,5846,22192,7402,2965,Tag0,unknown
1542899620337,0,69,1.51611328125E-5,61,48,41,71043,14389,18387,29740,5846,22192,7402,2965,Tag0,unknown
1542899620350,0,56,1.23046875E-5,61,48,41,71043,14389,18387,29740,5846,22192,7402,2965,Tag0,unknown
1542899620352,0,50,1.0986328125E-5,61,48,41,71043,14389,18387,29740,5846,22192,7402,2965,Tag0,unknown
1542899620353,0,55,1.20849609375E-5,61,48,41,71043,14389,18387,29740,5846,22192,7402,2965,Tag0,unknown
1542899620354,0,67,1.4721679687500002E-5,61,48,41,71043,14389,18387,29740,5846,22192,7402,2965,Tag0,unknown
1542899620354,0,61,1.34033203125E-5,61,48,41,71043,14389,18387,29740,5846,22192,7402,2965,Tag0,unknown
1542899620354,0,58,1.2744140625E-5,61,48,41,71043,14389,18387,29740,5846,22192,7402,2965,Tag0,unknown
1542899620355,0,73,1.6040039062500002E-5,61,48,41,71043,14389,18387,29740,5846,22192,7402,2965,Tag0,unknown
1542899620355,0,85,1.86767578125E-5,61,48,41,71043,14389,18387,29740,5846,22192,7402,2965,Tag0,unknown
1542899620368,0,67,1.4721679687500002E-5,61,48,41,71043,14389,18387,29740,5846,22192,7402,2965,Tag0,unknown
1542899620369,0,42,9.228515625000002E-6,61,48,41,71043,14389,18387,29740,5846,22192,7402,2965,Tag0,unknown
1542899620369,0,36,7.91015625E-6,61,48,41,71043,14389,18387,29740,5846,22192,7402,2965,Tag0,unknown
1542899620369,0,38,8.349609375E-6,61,48,41,71043,14389,18387,29740,5846,22192,7402,2965,Tag0,unknown
1542899620369,0,25,5.4931640625E-6,61,48,41,71043,14389,18387,29740,5846,22192,7402,2965,Tag0,unknown
1542899620370,0,2,4.39453125E-7,61,48,41,71043,14389,18387,29740,5846,22192,7402,2965,Tag0,unknown
1542899620370,0,-259,-5.69091796875E-5,61,48,41,71043,14389,18387,29740,5846,22192,7402,2965,Tag0,unknown
1542899620370,0,-266,-5.8447265625E-5,61,48,41,71043,14389,18387,29740,5846,22192,7402,2965,Tag0,unknown
1542899620371,0,-283,-6.218261718750001E-5,61,48,41,71043,14389,18387,29740,5846,22192,7402,2965,Tag0,unknown
1542899620371,0,-283,-6.218261718750001E-5,61,48,41,71043,14389,18387,29740,5846,22192,7402,2965,Tag0,unknown
1542899620383,0,-274,-6.0205078124999997E-5,61,48,41,71043,14389,18387,29740,5846,22192,7402,2965,Tag0,unknown
1542899620383,0,0,0.0,61,48,41,71043,14389,18387,29740,5846,22192,7402,2965,Tag0,unknown
1542899620384,0,13,2.8564453125E-6,61,48,41,71043,14389,18387,29740,5846,22192,7402,2965,Tag0,unknown
1542899620384,0,0,0.0,61,48,41,71043,14389,18387,29740,5846,22192,7402,2965,Tag0,unknown
1542899620384,0,-276,-6.064453125E-5,61,48,41,71043,14389,18387,29740,5846,22192,7402,2965,Tag0,unknown
1542899620385,0,-262,-5.7568359375E-5,61,48,41,71043,14389,18387,29740,5846,22192,7402,2965,Tag0,unknown
1542899620385,0,12,2.63671875E-6,61,48,41,71043,14389,18387,29740,5846,22192,7402,2965,Tag0,unknown
1542899620386,0,25,5.4931640625E-6,61,48,41,71043,14389,18387,29740,5846,22192,7402,2965,Tag0,unknown
1542899620386,0,18,3.955078125E-6,61,48,41,71043,14389,18387,29740,5846,22192,7402,2965,Tag0,unknown
1542899620399,0,0,0.0,61,48,41,71043,14389,18387,29740,5846,22192,7402,2965,Tag0,unknown
1542899620415,0,-269,-5.9106445312499996E-5,61,48,41,71043,14389,18387,29740,5846,22192,7402,2965,Tag0,unknown
1542899620415,0,-268,-5.8886718750000006E-5,61,48,41,71043,14389,18387,29740,5846,22192,7402,2965,Tag0,unknown
1542899620415,0,-258,-5.6689453125000004E-5,61,48,41,71043,14389,18387,29740,5846,22192,7402,2965,Tag0,unknown
1542899620416,0,4,8.7890625E-7,61,48,41,71043,14389,18387,29740,5846,22192,7402,2965,Tag0,unknown
1542899620416,0,10,2.197265625E-6,61,48,41,71043,14389,18387,29740,5846,22192,7402,2965,Tag0,unknown
1542899620416,0,34,7.4707031250000005E-6,61,48,41,71043,14389,18387,29740,5846,22192,7402,2965,Tag0,unknown
1542899620416,0,44,9.66796875E-6,61,48,41,71043,14389,18387,29740,5846,22192,7402,2965,Tag0,unknown
1542899620416,0,52,1.142578125E-5,61,48,41,71043,14389,18387,29740,5846,22192,7402,2965,Tag0,unknown
1542899620416,0,49,1.07666015625E-5,61,48,41,71043,14389,18387,29740,5846,22192,7402,2965,Tag0,unknown
1542899620416,0,38,8.349609375E-6,61,48,41,71043,14389,18387,29740,5846,22192,7402,2965,Tag0,unknown
1542899620416,0,65,1.42822265625E-5,61,48,41,71043,14389,18387,29740,5846,22192,7402,2965,Tag0,unknown
1542899620416,0,104,2.28515625E-5,61,48,41,71043,14389,18387,29740,5846,22192,7402,2965,Tag0,unknown
1542899620416,0,107,2.35107421875E-5,61,48,41,71043,14389,18387,29740,5846,22192,7402,2965,Tag0,unknown
1542899620417,0,73,1.6040039062500002E-5,61,48,41,71043,14389,18387,29740,5846,22192,7402,2965,Tag0,unknown
1542899620433,0,34,7.4707031250000005E-6,61,48,41,71043,14389,18387,29740,5846,22192,7402,2965,Tag0,unknown
1542899620434,0,5,1.0986328125E-6,61,48,41,71043,14389,18387,29740,5846,22192,7402,2965,Tag0,unknown
1542899620434,0,-265,-5.82275390625E-5,61,48,41,71043,14389,18387,29740,5846,22192,7402,2965,Tag0,unknown
1542899620435,0,-279,-6.13037109375E-5,61,48,41,71043,14389,18387,29740,5846,22192,7402,2965,Tag0,unknown
1542899620435,0,-289,-6.35009765625E-5,61,48,41,71043,14389,18387,29740,5846,22192,7402,2965,Tag0,unknown
1542899620435,0,-289,-6.35009765625E-5,61,48,41,71043,14389,18387,29740,5846,22192,7402,2965,Tag0,unknown
1542899620436,0,-273,-5.998535156250001E-5,61,48,41,71043,14389,18387,29740,5846,22192,7402,2965,Tag0,unknown
1542899620436,0,-269,-5.9106445312499996E-5,61,48,41,71043,14389,18387,29740,5846,22192,7402,2965,Tag0,unknown
1542899620437,0,-293,-6.43798828125E-5,61,48,41,71043,14389,18387,29740,5846,22192,7402,2965,Tag0,unknown
1542899620450,0,-281,-6.17431640625E-5,61,48,41,71043,14389,18387,29740,5846,22192,7402,2965,Tag0,unknown
1542899620450,0,16,3.515625E-6,61,48,41,71043,14389,18387,29740,5846,22192,7402,2965,Tag0,unknown
1542899620451,0,35,7.6904296875E-6,61,48,41,71043,14389,18387,29740,5846,22192,7402,2965,Tag0,unknown
1542899620452,0,26,5.712890625E-6,61,48,41,71043,14389,18387,29740,5846,22192,7402,2965,Tag0,unknown
1542899620452,0,43,9.448242187500001E-6,61,48,41,71043,14389,18387,29740,5846,22192,7402,2965,Tag0,unknown
1542899620452,0,58,1.2744140625E-5,61,48,41,71043,14389,18387,29740,5846,22192,7402,2965,Tag0,unknown
1542899620453,0,50,1.0986328125E-5,61,48,41,71043,14389,18387,29740,5846,22192,7402,2965,Tag0,unknown
1542899620453,0,58,1.2744140625E-5,61,48,41,71043,14389,18387,29740,5846,22192,7402,2965,Tag0,unknown
1542899620453,0,74,1.6259765625E-5,61,48,41,71043,14389,18387,29740,5846,22192,7402,2965,Tag0,unknown
1542899620466,0,58,1.2744140625E-5,61,48,41,71043,14389,18387,29740,5846,22192,7402,2965,Tag0,unknown
1542899620467,0,28,6.15234375E-6,61,48,41,71043,14389,18387,29740,5846,22192,7402,2965,Tag0,unknown
1542899620467,0,18,3.955078125E-6,61,48,41,71043,14389,18387,29740,5846,22192,7402,2965,Tag0,unknown
1542899620467,0,18,3.955078125E-6,61,48,41,71043,14389,18387,29740,5846,22192,7402,2965,Tag0,unknown
1542899620467,0,6,1.318359375E-6,61,48,41,71043,14389,18387,29740,5846,22192,7402,2965,Tag0,unknown
1542899620468,0,-257,-5.64697265625E-5,61,48,41,71043,14389,18387,29740,5846,22192,7402,2965,Tag0,unknown
1542899620468,0,6,1.318359375E-6,61,48,41,71043,14389,18387,29740,5846,22192,7402,2965,Tag0,unknown
1542899620468,0,13,2.8564453125E-6,61,48,41,71043,14389,18387,29740,5846,22192,7402,2965,Tag0,unknown
1542899620482,0,5,1.0986328125E-6,61,48,41,71043,14389,18387,29740,5846,22192,7402,2965,Tag0,unknown
1542899620482,0,-274,-6.0205078124999997E-5,61,48,41,71043,14389,18387,29740,5846,22192,7402,2965,Tag0,unknown
1542899620482,0,-280,-6.15234375E-5,61,48,41,71043,14389,18387,29740,5846,22192,7402,2965,Tag0,unknown
1542899620483,0,-263,-5.7788085937500005E-5,61,48,41,71043,14389,18387,29740,5846,22192,7402,2965,Tag0,unknown
1542899620483,0,10,2.197265625E-6,61,48,41,71043,14389,18387,29740,5846,22192,7402,2965,Tag0,unknown
1542899620484,0,7,1.5380859375E-6,61,48,41,71043,14389,18387,29740,5846,22192,7402,2965,Tag0,unknown
1542899620484,0,-267,-5.86669921875E-5,61,48,41,71043,14389,18387,29740,5846,22192,7402,2965,Tag0,unknown
1542899620484,0,-289,-6.35009765625E-5,61,48,41,71043,14389,18387,29740,5846,22192,7402,2965,Tag0,unknown
1542899620484,0,-284,-6.240234375E-5,61,48,41,71043,14389,18387,29740,5846,22192,7402,2965,Tag0,unknown
1542899620500,0,-267,-5.86669921875E-5,61,48,41,71043,14389,18387,29740,5846,22192,7402,2965,Tag0,unknown
1542899620501,0,10,2.197265625E-6,61,48,41,71043,14389,18387,29740,5846,22192,7402,2965,Tag0,unknown
1542899620501,0,32,7.03125E-6,61,48,41,71043,14389,18387,29740,5846,22192,7402,2965,Tag0,unknown
1542899620501,0,37,8.1298828125E-6,61,48,41,71043,14389,18387,29740,5846,22192,7402,2965,Tag0,unknown
1542899620502,0,37,8.1298828125E-6,61,48,41,71043,14389,18387,29740,5846,22192,7402,2965,Tag0,unknown
1542899620502,0,33,7.2509765625E-6,61,48,41,71043,14389,18387,29740,5846,22192,7402,2965,Tag0,unknown
1542899620502,0,34,7.4707031250000005E-6,61,48,41,71043,14389,18387,29740,5846,22192,7402,2965,Tag0,unknown
1542899620502,0,39,8.5693359375E-6,61,48,41,71043,14389,18387,29740,5846,22192,7402,2965,Tag0,unknown
1542899620517,0,40,8.7890625E-6,61,48,41,71043,14389,18387,29740,5846,22192,7402,2965,Tag0,unknown
1542899620518,0,40,8.7890625E-6,61,48,41,71043,14389,18387,29740,5846,22192,7402,2965,Tag0,unknown
1542899620518,0,39,8.5693359375E-6,61,48,41,71043,14389,18387,29740,5846,22192,7402,2965,Tag0,unknown
1542899620521,0,22,4.833984375E-6,61,48,41,71043,14389,18387,29740,5846,22192,7402,2965,Tag0,unknown
1542899620522,0,4,8.7890625E-7,61,48,41,71043,14389,18387,29740,5846,22192,7402,2965,Tag0,unknown
1542899620523,0,19,4.1748046875E-6,61,48,41,71043,14389,18387,29740,5846,22192,7402,2965,Tag0,unknown
1542899620524,0,48,1.0546875E-5,61,48,41,71043,14389,18387,29740,5846,22192,7402,2965,Tag0,unknown
1542899620525,0,52,1.142578125E-5,61,48,41,71043,14389,18387,29740,5846,22192,7402,2965,Tag0,unknown
1542899620526,0,37,8.1298828125E-6,61,48,41,71043,14389,18387,29740,5846,22192,7402,2965,Tag0,unknown
1542899620533,0,24,5.2734375E-6,61,48,41,71043,14389,18387,29740,5846,22192,7402,2965,Tag0,unknown
1542899620533,0,39,8.5693359375E-6,61,48,41,71043,14389,18387,29740,5846,22192,7402,2965,Tag0,unknown
1542899620533,0,59,1.29638671875E-5,61,48,41,71043,14389,18387,29740,5846,22192,7402,2965,Tag0,unknown
1542899620533,0,64,1.40625E-5,61,48,41,71043,14389,18387,29740,5846,22192,7402,2965,Tag0,unknown
1542899620533,0,65,1.42822265625E-5,61,48,41,71043,14389,18387,29740,5846,22192,7402,2965,Tag0,unknown
1542899620534,0,64,1.40625E-5,61,48,41,71043,14389,18387,29740,5846,22192,7402,2965,Tag0,unknown
1542899620534,0,69,1.51611328125E-5,61,48,41,71043,14389,18387,29740,5846,22192,7402,2965,Tag0,unknown
1542899620553,0,66,1.4501953125E-5,61,48,41,71043,14389,18387,29740,5846,22192,7402,2965,Tag0,unknown
1542899620554,0,49,1.07666015625E-5,61,48,41,71043,14389,18387,29740,5846,22192,7402,2965,Tag0,unknown
1542899620554,0,41,9.008789062499999E-6,61,48,41,71043,14389,18387,29740,5846,22192,7402,2965,Tag0,unknown
1542899620570,0,39,8.5693359375E-6,61,48,41,71043,14389,18387,29740,5846,22192,7402,2965,Tag0,unknown
1542899620571,0,42,9.228515625000002E-6,61,48,41,71043,14389,18387,29740,5846,22192,7402,2965,Tag0,unknown
1542899620572,0,56,1.23046875E-5,61,48,41,71043,14389,18387,29740,5846,22192,7402,2965,Tag0,unknown
1542899620572,0,61,1.34033203125E-5,61,48,41,71043,14389,18387,29740,5846,22192,7402,2965,Tag0,unknown
1542899620573,0,57,1.2524414062500001E-5,61,48,41,71043,14389,18387,29740,5846,22192,7402,2965,Tag0,unknown
1542899620573,0,20,4.39453125E-6,61,48,41,71043,14389,18387,29740,5846,22192,7402,2965,Tag0,unknown
1542899620574,0,-279,-6.13037109375E-5,61,48,41,71043,14389,18387,29740,5846,22192,7402,2965,Tag0,unknown
1542899620574,0,-289,-6.35009765625E-5,61,48,41,71043,14389,18387,29740,5846,22192,7402,2965,Tag0,unknown
1542899620586,0,-289,-6.35009765625E-5,61,48,41,71043,14389,18387,29740,5846,22192,7402,2965,Tag0,unknown
1542899620586,0,-286,-6.2841796875E-5,61,48,41,71043,14389,18387,29740,5846,22192,7402,2965,Tag0,unknown
1542899620587,0,-269,-5.9106445312499996E-5,61,48,41,71043,14389,18387,29740,5846,22192,7402,2965,Tag0,unknown
1542899620587,0,-268,-5.8886718750000006E-5,61,48,41,71043,14389,18387,29740,5846,22192,7402,2965,Tag0,unknown
1542899620587,0,-285,-6.26220703125E-5,61,48,41,71043,14389,18387,29740,5846,22192,7402,2965,Tag0,unknown
1542899620587,0,-294,-6.4599609375E-5,61,48,41,71043,14389,18387,29740,5846,22192,7402,2965,Tag0,unknown
1542899620587,0,-291,-6.39404296875E-5,61,48,41,71043,14389,18387,29740,5846,22192,7402,2965,Tag0,unknown
1542899620587,0,-282,-6.1962890625E-5,61,48,41,71043,14389,18387,29740,5846,22192,7402,2965,Tag0,unknown
1542899620588,0,-280,-6.15234375E-5,61,48,41,71043,14389,18387,29740,5846,22192,7402,2965,Tag0,unknown
1542899620588,0,-278,-6.108398437500001E-5,61,48,41,71043,14389,18387,29740,5846,22192,7402,2965,Tag0,unknown
1542899620588,0,-282,-6.1962890625E-5,61,48,41,71043,14389,18387,29740,5846,22192,7402,2965,Tag0,unknown
1542899620588,0,-281,-6.17431640625E-5,61,48,41,71043,14389,18387,29740,5846,22192,7402,2965,Tag0,unknown
1542899620589,0,-277,-6.0864257812500005E-5,61,48,41,71043,14389,18387,29740,5846,22192,7402,2965,Tag0,unknown
1542899620600,0,-269,-5.9106445312499996E-5,61,48,41,71043,14389,18387,29740,5846,22192,7402,2965,Tag0,unknown
1542899620600,0,13,2.8564453125E-6,61,48,41,71043,14389,18387,29740,5846,22192,7402,2965,Tag0,unknown
1542899620601,0,33,7.2509765625E-6,61,48,41,71043,14389,18387,29740,5846,22192,7402,2965,Tag0,unknown
1542899620601,0,27,5.9326171875000005E-6,61,48,41,71043,14389,18387,29740,5846,22192,7402,2965,Tag0,unknown
1542899620601,0,21,4.614257812500001E-6,61,48,41,71043,14389,18387,29740,5846,22192,7402,2965,Tag0,unknown
1542899620601,0,21,4.614257812500001E-6,61,48,41,71043,14389,18387,29740,5846,22192,7402,2965,Tag0,unknown
1542899620617,0,34,7.4707031250000005E-6,61,48,41,71043,14389,18387,29740,5846,22192,7402,2965,Tag0,unknown
1542899620618,0,38,8.349609375E-6,61,48,41,71043,14389,18387,29740,5846,22192,7402,2965,Tag0,unknown
1542899620618,0,23,5.0537109375E-6,61,48,41,71043,14389,18387,29740,5846,22192,7402,2965,Tag0,unknown
1542899620618,0,13,2.8564453125E-6,61,48,41,71043,14389,18387,29740,5846,22192,7402,2965,Tag0,unknown
1542899620618,0,23,5.0537109375E-6,61,48,41,71043,14389,18387,29740,5846,22192,7402,2965,Tag0,unknown
1542899620618,0,37,8.1298828125E-6,61,48,41,71043,14389,18387,29740,5846,22192,7402,2965,Tag0,unknown
1542899620619,0,32,7.03125E-6,61,48,41,71043,14389,18387,29740,5846,22192,7402,2965,Tag0,unknown
1542899620619,0,11,2.4169921875E-6,61,48,41,71043,14389,18387,29740,5846,22192,7402,2965,Tag0,unknown
1542899620619,0,-262,-5.7568359375E-5,61,48,41,71043,14389,18387,29740,5846,22192,7402,2965,Tag0,unknown
1542899620620,0,-268,-5.8886718750000006E-5,61,48,41,71043,14389,18387,29740,5846,22192,7402,2965,Tag0,unknown
1542899620620,0,-257,-5.64697265625E-5,61,48,41,71043,14389,18387,29740,5846,22192,7402,2965,Tag0,unknown
1542899620620,0,0,0.0,61,48,41,71043,14389,18387,29740,5846,22192,7402,2965,Tag0,unknown
1542899620620,0,-260,-5.712890625E-5,61,48,41,71043,14389,18387,29740,5846,22192,7402,2965,Tag0,unknown
1542899620620,0,-267,-5.86669921875E-5,61,48,41,71043,14389,18387,29740,5846,22192,7402,2965,Tag0,unknown
1542899620620,0,-264,-5.80078125E-5,61,48,41,71043,14389,18387,29740,5846,22192,7402,2965,Tag0,unknown
1542899620633,0,-269,-5.9106445312499996E-5,61,48,41,71043,14389,18387,29740,5846,22192,7402,2965,Tag0,unknown
1542899620634,0,-267,-5.86669921875E-5,61,48,41,71043,14389,18387,29740,5846,22192,7402,2965,Tag0,unknown
1542899620634,0,19,4.1748046875E-6,61,48,41,71043,14389,18387,29740,5846,22192,7402,2965,Tag0,unknown
1542899620634,0,40,8.7890625E-6,61,48,41,71043,14389,18387,29740,5846,22192,7402,2965,Tag0,unknown
1542899620634,0,38,8.349609375E-6,61,48,41,71043,14389,18387,29740,5846,22192,7402,2965,Tag0,unknown
1542899620635,0,50,1.0986328125E-5,61,48,41,71043,14389,18387,29740,5846,22192,7402,2965,Tag0,unknown
1542899620635,0,82,1.8017578124999998E-5,61,48,41,71043,14389,18387,29740,5846,22192,7402,2965,Tag0,unknown
1542899620656,0,112,2.4609375E-5,61,48,41,71043,14389,18387,29740,5846,22192,7402,2965,Tag0,unknown
1542899620656,0,-116,-2.548828125E-5,61,48,41,71043,14389,18387,29740,5846,22192,7402,2965,Tag0,unknown
1542899620657,0,-99,-2.1752929687500003E-5,61,48,41,71043,14389,18387,29740,5846,22192,7402,2965,Tag0,unknown
1542899620657,0,-120,-2.63671875E-5,61,48,41,71043,14389,18387,29740,5846,22192,7402,2965,Tag0,unknown
1542899620658,0,112,2.4609375E-5,61,48,41,71043,14389,18387,29740,5846,22192,7402,2965,Tag0,unknown
1542899620658,0,106,2.3291015625000003E-5,61,48,41,71043,14389,18387,29740,5846,22192,7402,2965,Tag0,unknown
1542899620658,0,108,2.3730468750000002E-5,61,48,41,71043,14389,18387,29740,5846,22192,7402,2965,Tag0,unknown
1542899620659,0,105,2.30712890625E-5,61,48,41,71043,14389,18387,29740,5846,22192,7402,2965,Tag0,unknown
1542899620659,0,99,2.1752929687500003E-5,61,48,41,71043,14389,18387,29740,5846,22192,7402,2965,Tag0,unknown
1542899620660,0,92,2.021484375E-5,61,48,41,71043,14389,18387,29740,5846,22192,7402,2965,Tag0,unknown
1542899620661,0,85,1.86767578125E-5,61,48,41,71043,14389,18387,29740,5846,22192,7402,2965,Tag0,unknown
1542899620669,0,67,1.4721679687500002E-5,61,48,41,71043,14389,18387,29740,5846,22192,7402,2965,Tag0,unknown
1542899620669,0,40,8.7890625E-6,61,48,41,71043,14389,18387,29740,5846,22192,7402,2965,Tag0,unknown
1542899620670,0,19,4.1748046875E-6,61,48,41,71043,14389,18387,29740,5846,22192,7402,2965,Tag0,unknown
1542899620671,0,21,4.614257812500001E-6,61,48,41,71043,14389,18387,29740,5846,22192,7402,2965,Tag0,unknown
1542899620672,0,36,7.91015625E-6,61,48,41,71043,14389,18387,29740,5846,22192,7402,2965,Tag0,unknown
1542899620672,0,53,1.1645507812500002E-5,61,48,41,71043,14389,18387,29740,5846,22192,7402,2965,Tag0,unknown
1542899620684,0,51,1.1206054687499999E-5,61,48,41,71043,14389,18387,29740,5846,22192,7402,2965,Tag0,unknown
1542899620685,0,26,5.712890625E-6,61,48,41,71043,14389,18387,29740,5846,22192,7402,2965,Tag0,unknown
1542899620685,0,17,3.7353515625000003E-6,61,48,41,71043,14389,18387,29740,5846,22192,7402,2965,Tag0,unknown
1542899620686,0,23,5.0537109375E-6,61,48,41,71043,14389,18387,29740,5846,22192,7402,2965,Tag0,unknown
1542899620686,0,33,7.2509765625E-6,61,48,41,71043,14389,18387,29740,5846,22192,7402,2965,Tag0,unknown
1542899620686,0,38,8.349609375E-6,61,48,41,71043,14389,18387,29740,5846,22192,7402,2965,Tag0,unknown
1542899620687,0,40,8.7890625E-6,61,48,41,71043,14389,18387,29740,5846,22192,7402,2965,Tag0,unknown
1542899620687,0,41,9.008789062499999E-6,61,48,41,71043,14389,18387,29740,5846,22192,7402,2965,Tag0,unknown
1542899620687,0,33,7.2509765625E-6,61,48,41,71043,14389,18387,29740,5846,22192,7402,2965,Tag0,unknown
1542899620687,0,16,3.515625E-6,61,48,41,71043,14389,18387,29740,5846,22192,7402,2965,Tag0,unknown
1542899620700,0,9,1.9775390625E-6,61,48,41,71043,14389,18387,29740,5846,22192,7402,2965,Tag0,unknown
1542899620701,0,4,8.7890625E-7,61,48,41,71043,14389,18387,29740,5846,22192,7402,2965,Tag0,unknown
1542899620701,0,-260,-5.712890625E-5,61,48,41,71043,14389,18387,29740,5846,22192,7402,2965,Tag0,unknown
1542899620702,0,4,8.7890625E-7,61,48,41,71043,14389,18387,29740,5846,22192,7402,2965,Tag0,unknown
1542899620702,0,43,9.448242187500001E-6,61,48,41,71043,14389,18387,29740,5846,22192,7402,2965,Tag0,unknown
1542899620702,0,61,1.34033203125E-5,61,48,41,71043,14389,18387,29740,5846,22192,7402,2965,Tag0,unknown
1542899620702,0,35,7.6904296875E-6,61,48,41,71043,14389,18387,29740,5846,22192,7402,2965,Tag0,unknown
1542899620702,0,25,5.4931640625E-6,61,48,41,71043,14389,18387,29740,5846,22192,7402,2965,Tag0,unknown
1542899620719,0,58,1.2744140625E-5,61,48,41,71043,14389,18387,29740,5846,22192,7402,2965,Tag0,unknown
1542899620720,0,88,1.93359375E-5,61,48,41,71043,14389,18387,29740,5846,22192,7402,2965,Tag0,unknown
1542899620720,0,87,1.91162109375E-5,61,48,41,71043,14389,18387,29740,5846,22192,7402,2965,Tag0,unknown
1542899620721,0,61,1.34033203125E-5,61,48,41,71043,14389,18387,29740,5846,22192,7402,2965,Tag0,unknown
1542899620721,0,43,9.448242187500001E-6,61,48,41,71043,14389,18387,29740,5846,22192,7402,2965,Tag0,unknown
1542899620721,0,53,1.1645507812500002E-5,61,48,41,71043,14389,18387,29740,5846,22192,7402,2965,Tag0,unknown
1542899620721,0,54,1.1865234375000001E-5,61,48,41,71043,14389,18387,29740,5846,22192,7402,2965,Tag0,unknown
1542899620722,0,39,8.5693359375E-6,61,48,41,71043,14389,18387,29740,5846,22192,7402,2965,Tag0,unknown
1542899620722,0,23,5.0537109375E-6,61,48,41,71043,14389,18387,29740,5846,22192,7402,2965,Tag0,unknown
1542899620735,0,24,5.2734375E-6,61,48,41,71043,14389,18387,29740,5846,22192,7402,2965,Tag0,unknown
1542899620735,0,50,1.0986328125E-5,61,48,41,71043,14389,18387,29740,5846,22192,7402,2965,Tag0,unknown
1542899620736,0,68,1.4941406250000001E-5,61,48,41,71043,14389,18387,29740,5846,22192,7402,2965,Tag0,unknown
1542899620736,0,65,1.42822265625E-5,61,48,41,71043,14389,18387,29740,5846,22192,7402,2965,Tag0,unknown
1542899620737,0,55,1.20849609375E-5,61,48,41,71043,14389,18387,29740,5846,22192,7402,2965,Tag0,unknown
1542899620737,0,56,1.23046875E-5,61,48,41,71043,14389,18387,29740,5846,22192,7402,2965,Tag0,unknown
1542899620737,0,49,1.07666015625E-5,61,48,41,71043,14389,18387,29740,5846,22192,7402,2965,Tag0,unknown
1542899620738,0,42,9.228515625000002E-6,61,48,41,71043,14389,18387,29740,5846,22192,7402,2965,Tag0,unknown
1542899620738,0,44,9.66796875E-6,61,48,41,71043,14389,18387,29740,5846,22192,7402,2965,Tag0,unknown
1542899620753,0,32,7.03125E-6,61,48,41,71043,14389,18387,29740,5846,22192,7402,2965,Tag0,unknown
1542899620754,0,16,3.515625E-6,61,48,41,71043,14389,18387,29740,5846,22192,7402,2965,Tag0,unknown
1542899620754,0,3,6.591796875E-7,61,48,41,71043,14389,18387,29740,5846,22192,7402,2965,Tag0,unknown
1542899620757,0,-280,-6.15234375E-5,61,48,41,71043,14389,18387,29740,5846,22192,7402,2965,Tag0,unknown
1542899620758,0,-284,-6.240234375E-5,61,48,41,71043,14389,18387,29740,5846,22192,7402,2965,Tag0,unknown
1542899620758,0,-264,-5.80078125E-5,61,48,41,71043,14389,18387,29740,5846,22192,7402,2965,Tag0,unknown
1542899620759,0,3,6.591796875E-7,61,48,41,71043,14389,18387,29740,5846,22192,7402,2965,Tag0,unknown
1542899620759,0,12,2.63671875E-6,61,48,41,71043,14389,18387,29740,5846,22192,7402,2965,Tag0,unknown
1542899620760,0,21,4.614257812500001E-6,61,48,41,71043,14389,18387,29740,5846,22192,7402,2965,Tag0,unknown
1542899620771,0,34,7.4707031250000005E-6,61,48,41,71043,14389,18387,29740,5846,22192,7402,2965,Tag0,unknown
1542899620772,0,29,6.3720703125E-6,61,48,41,71043,14389,18387,29740,5846,22192,7402,2965,Tag0,unknown
1542899620772,0,33,7.2509765625E-6,61,48,41,71043,14389,18387,29740,5846,22192,7402,2965,Tag0,unknown
1542899620773,0,39,8.5693359375E-6,61,48,41,71043,14389,18387,29740,5846,22192,7402,2965,Tag0,unknown
1542899620773,0,49,1.07666015625E-5,61,48,41,71043,14389,18387,29740,5846,22192,7402,2965,Tag0,unknown
1542899620773,0,52,1.142578125E-5,61,48,41,71043,14389,18387,29740,5846,22192,7402,2965,Tag0,unknown
1542899620774,0,55,1.20849609375E-5,61,48,41,71043,14389,18387,29740,5846,22192,7402,2965,Tag0,unknown
1542899620774,0,60,1.318359375E-5,61,48,41,71043,14389,18387,29740,5846,22192,7402,2965,Tag0,unknown
1542899620775,0,67,1.4721679687500002E-5,61,48,41,71043,14389,18387,29740,5846,22192,7402,2965,Tag0,unknown
1542899620785,0,71,1.56005859375E-5,61,48,41,71043,14389,18387,29740,5846,22192,7402,2965,Tag0,unknown
1542899620786,0,67,1.4721679687500002E-5,61,48,41,71043,14389,18387,29740,5846,22192,7402,2965,Tag0,unknown
1542899620786,0,49,1.07666015625E-5,61,48,41,71043,14389,18387,29740,5846,22192,7402,2965,Tag0,unknown
1542899620786,0,39,8.5693359375E-6,61,48,41,71043,14389,18387,29740,5846,22192,7402,2965,Tag0,unknown
1542899620786,0,45,9.8876953125E-6,61,48,41,71043,14389,18387,29740,5846,22192,7402,2965,Tag0,unknown
1542899620786,0,57,1.2524414062500001E-5,61,48,41,71043,14389,18387,29740,5846,22192,7402,2965,Tag0,unknown
1542899620787,0,64,1.40625E-5,61,48,41,71043,14389,18387,29740,5846,22192,7402,2965,Tag0,unknown
1542899620800,0,57,1.2524414062500001E-5,61,48,41,71043,14389,18387,29740,5846,22192,7402,2965,Tag0,unknown
1542899620801,0,38,8.349609375E-6,61,48,41,71043,14389,18387,29740,5846,22192,7402,2965,Tag0,unknown
1542899620801,0,21,4.614257812500001E-6,61,48,41,71043,14389,18387,29740,5846,22192,7402,2965,Tag0,unknown
1542899620801,0,8,1.7578125E-6,61,48,41,71043,14389,18387,29740,5846,22192,7402,2965,Tag0,unknown
1542899620801,0,5,1.0986328125E-6,61,48,41,71043,14389,18387,29740,5846,22192,7402,2965,Tag0,unknown
1542899620802,0,6,1.318359375E-6,61,48,41,71043,14389,18387,29740,5846,22192,7402,2965,Tag0,unknown
1542899620802,0,18,3.955078125E-6,61,48,41,71043,14389,18387,29740,5846,22192,7402,2965,Tag0,unknown
1542899620802,0,26,5.712890625E-6,61,48,41,71043,14389,18387,29740,5846,22192,7402,2965,Tag0,unknown
1542899620817,0,25,5.4931640625E-6,61,48,41,71043,14389,18387,29740,5846,22192,7402,2965,Tag0,unknown
1542899620818,0,22,4.833984375E-6,61,48,41,71043,14389,18387,29740,5846,22192,7402,2965,Tag0,unknown
1542899620818,0,37,8.1298828125E-6,61,48,41,71043,14389,18387,29740,5846,22192,7402,2965,Tag0,unknown
1542899620819,0,42,9.228515625000002E-6,61,48,41,71043,14389,18387,29740,5846,22192,7402,2965,Tag0,unknown
1542899620819,0,44,9.66796875E-6,61,48,41,71043,14389,18387,29740,5846,22192,7402,2965,Tag0,unknown
1542899620819,0,50,1.0986328125E-5,61,48,41,71043,14389,18387,29740,5846,22192,7402,2965,Tag0,unknown
1542899620819,0,42,9.228515625000002E-6,61,48,41,71043,14389,18387,29740,5846,22192,7402,2965,Tag0,unknown
1542899620819,0,37,8.1298828125E-6,61,48,41,71043,14389,18387,29740,5846,22192,7402,2965,Tag0,unknown
1542899620820,0,40,8.7890625E-6,61,48,41,71043,14389,18387,29740,5846,22192,7402,2965,Tag0,unknown
1542899620820,0,55,1.20849609375E-5,61,48,41,71043,14389,18387,29740,5846,22192,7402,2965,Tag0,unknown
1542899620835,0,61,1.34033203125E-5,61,48,41,71043,14389,18387,29740,5846,22192,7402,2965,Tag0,unknown
1542899620836,0,57,1.2524414062500001E-5,61,48,41,71043,14389,18387,29740,5846,22192,7402,2965,Tag0,unknown
1542899620837,0,44,9.66796875E-6,61,48,41,71043,14389,18387,29740,5846,22192,7402,2965,Tag0,unknown
1542899620837,0,24,5.2734375E-6,61,48,41,71043,14389,18387,29740,5846,22192,7402,2965,Tag0,unknown
1542899620837,0,21,4.614257812500001E-6,61,48,41,71043,14389,18387,29740,5846,22192,7402,2965,Tag0,unknown
1542899620837,0,53,1.1645507812500002E-5,61,48,41,71043,14389,18387,29740,5846,22192,7402,2965,Tag0,unknown
1542899620838,0,91,1.99951171875E-5,61,48,41,71043,14389,18387,29740,5846,22192,7402,2965,Tag0,unknown
1542899620852,0,92,2.021484375E-5,61,48,41,71043,14389,18387,29740,5846,22192,7402,2965,Tag0,unknown
1542899620853,0,65,1.42822265625E-5,61,48,41,71043,14389,18387,29740,5846,22192,7402,2965,Tag0,unknown
1542899620854,0,36,7.91015625E-6,61,48,41,71043,14389,18387,29740,5846,22192,7402,2965,Tag0,unknown
1542899620856,0,39,8.5693359375E-6,61,48,41,71043,14389,18387,29740,5846,22192,7402,2965,Tag0,unknown
1542899620857,0,65,1.42822265625E-5,61,48,41,71043,14389,18387,29740,5846,22192,7402,2965,Tag0,unknown
1542899620858,0,85,1.86767578125E-5,61,48,41,71043,14389,18387,29740,5846,22192,7402,2965,Tag0,unknown
1542899620859,0,91,1.99951171875E-5,61,48,41,71043,14389,18387,29740,5846,22192,7402,2965,Tag0,unknown
1542899620860,0,70,1.5380859375E-5,61,48,41,71043,14389,18387,29740,5846,22192,7402,2965,Tag0,unknown
1542899620861,0,38,8.349609375E-6,61,48,41,71043,14389,18387,29740,5846,22192,7402,2965,Tag0,unknown
1542899620862,0,25,5.4931640625E-6,61,48,41,71043,14389,18387,29740,5846,22192,7402,2965,Tag0,unknown
1542899620871,0,43,9.448242187500001E-6,61,48,41,71043,14389,18387,29740,5846,22192,7402,2965,Tag0,unknown
1542899620872,0,64,1.40625E-5,61,48,41,71043,14389,18387,29740,5846,22192,7402,2965,Tag0,unknown
1542899620872,0,61,1.34033203125E-5,61,48,41,71043,14389,18387,29740,5846,22192,7402,2965,Tag0,unknown
1542899620873,0,42,9.228515625000002E-6,61,48,41,71043,14389,18387,29740,5846,22192,7402,2965,Tag0,unknown
1542899620874,0,19,4.1748046875E-6,61,48,41,71043,14389,18387,29740,5846,22192,7402,2965,Tag0,unknown
1542899620874,0,28,6.15234375E-6,61,48,41,71043,14389,18387,29740,5846,22192,7402,2965,Tag0,unknown
1542899620875,0,50,1.0986328125E-5,61,48,41,71043,14389,18387,29740,5846,22192,7402,2965,Tag0,unknown
1542899620886,0,48,1.0546875E-5,61,48,41,71043,14389,18387,29740,5846,22192,7402,2965,Tag0,unknown
1542899620887,0,28,6.15234375E-6,61,48,41,71043,14389,18387,29740,5846,22192,7402,2965,Tag0,unknown
1542899620887,0,12,2.63671875E-6,61,48,41,71043,14389,18387,29740,5846,22192,7402,2965,Tag0,unknown
1542899620888,0,10,2.197265625E-6,61,48,41,71043,14389,18387,29740,5846,22192,7402,2965,Tag0,unknown
1542899620889,0,24,5.2734375E-6,61,48,41,71043,14389,18387,29740,5846,22192,7402,2965,Tag0,unknown
1542899620889,0,41,9.008789062499999E-6,61,48,41,71043,14389,18387,29740,5846,22192,7402,2965,Tag0,unknown
1542899620889,0,36,7.91015625E-6,61,48,41,71043,14389,18387,29740,5846,22192,7402,2965,Tag0,unknown
1542899620890,0,23,5.0537109375E-6,61,48,41,71043,14389,18387,29740,5846,22192,7402,2965,Tag0,unknown
1542899620890,0,24,5.2734375E-6,61,48,41,71043,14389,18387,29740,5846,22192,7402,2965,Tag0,unknown
1542899620902,0,25,5.4931640625E-6,61,48,41,71043,14389,18387,29740,5846,22192,7402,2965,Tag0,unknown
1542899620902,0,28,6.15234375E-6,61,48,41,71043,14389,18387,29740,5846,22192,7402,2965,Tag0,unknown
1542899620903,0,34,7.4707031250000005E-6,61,48,41,71043,14389,18387,29740,5846,22192,7402,2965,Tag0,unknown
1542899620903,0,38,8.349609375E-6,61,48,41,71043,14389,18387,29740,5846,22192,7402,2965,Tag0,unknown
1542899620903,0,55,1.20849609375E-5,61,48,41,71043,14389,18387,29740,5846,22192,7402,2965,Tag0,unknown
1542899620904,0,67,1.4721679687500002E-5,61,48,41,71043,14389,18387,29740,5846,22192,7402,2965,Tag0,unknown
1542899620904,0,86,1.8896484375000003E-5,61,48,41,71043,14389,18387,29740,5846,22192,7402,2965,Tag0,unknown
1542899620904,0,93,2.04345703125E-5,61,48,41,71043,14389,18387,29740,5846,22192,7402,2965,Tag0,unknown
1542899620905,0,74,1.6259765625E-5,61,48,41,71043,14389,18387,29740,5846,22192,7402,2965,Tag0,unknown
1542899620905,0,42,9.228515625000002E-6,61,48,41,71043,14389,18387,29740,5846,22192,7402,2965,Tag0,unknown
1542899620918,0,32,7.03125E-6,61,48,41,71043,14389,18387,29740,5846,22192,7402,2965,Tag0,unknown
1542899620919,0,32,7.03125E-6,61,48,41,71043,14389,18387,29740,5846,22192,7402,2965,Tag0,unknown
1542899620919,0,29,6.3720703125E-6,61,48,41,71043,14389,18387,29740,5846,22192,7402,2965,Tag0,unknown
1542899620919,0,34,7.4707031250000005E-6,61,48,41,71043,14389,18387,29740,5846,22192,7402,2965,Tag0,unknown
1542899620920,0,36,7.91015625E-6,61,48,41,71043,14389,18387,29740,5846,22192,7402,2965,Tag0,unknown
1542899620920,0,38,8.349609375E-6,61,48,41,71043,14389,18387,29740,5846,22192,7402,2965,Tag0,unknown
1542899620920,0,36,7.91015625E-6,61,48,41,71043,14389,18387,29740,5846,22192,7402,2965,Tag0,unknown
1542899620936,0,28,6.15234375E-6,61,48,41,71043,14389,18387,29740,5846,22192,7402,2965,Tag0,unknown
1542899620937,0,48,1.0546875E-5,61,48,41,71043,14389,18387,29740,5846,22192,7402,2965,Tag0,unknown
1542899620937,0,80,1.7578125E-5,61,48,41,71043,14389,18387,29740,5846,22192,7402,2965,Tag0,unknown
1542899620937,0,96,2.109375E-5,61,48,41,71043,14389,18387,29740,5846,22192,7402,2965,Tag0,unknown
1542899620938,0,87,1.91162109375E-5,61,48,41,71043,14389,18387,29740,5846,22192,7402,2965,Tag0,unknown
1542899620938,0,88,1.93359375E-5,61,48,41,71043,14389,18387,29740,5846,22192,7402,2965,Tag0,unknown
1542899620938,0,113,2.48291015625E-5,61,48,41,71043,14389,18387,29740,5846,22192,7402,2965,Tag0,unknown
1542899620939,0,-119,-2.6147460937500004E-5,61,48,41,71043,14389,18387,29740,5846,22192,7402,2965,Tag0,unknown
1542899620940,0,-111,-2.43896484375E-5,61,48,41,71043,14389,18387,29740,5846,22192,7402,2965,Tag0,unknown
1542899620940,0,-121,-2.6586914062500003E-5,61,48,41,71043,14389,18387,29740,5846,22192,7402,2965,Tag0,unknown
1542899620953,0,121,2.6586914062500003E-5,61,48,41,71043,14389,18387,29740,5846,22192,7402,2965,Tag0,unknown
1542899620954,0,115,2.52685546875E-5,61,48,41,71043,14389,18387,29740,5846,22192,7402,2965,Tag0,unknown
1542899620956,0,116,2.548828125E-5,61,48,41,71043,14389,18387,29740,5846,22192,7402,2965,Tag0,unknown
1542899620957,0,-128,-2.8125E-5,61,48,41,71043,14389,18387,29740,5846,22192,7402,2965,Tag0,unknown
1542899620957,0,123,2.70263671875E-5,61,48,41,71043,14389,18387,29740,5846,22192,7402,2965,Tag0,unknown
1542899620958,0,96,2.109375E-5,61,48,41,71043,14389,18387,29740,5846,22192,7402,2965,Tag0,unknown
1542899620959,0,70,1.5380859375E-5,61,48,41,71043,14389,18387,29740,5846,22192,7402,2965,Tag0,unknown
1542899620960,0,67,1.4721679687500002E-5,61,48,41,71043,14389,18387,29740,5846,22192,7402,2965,Tag0,unknown
1542899620961,0,75,1.64794921875E-5,61,48,41,71043,14389,18387,29740,5846,22192,7402,2965,Tag0,unknown
1542899620968,0,84,1.8457031250000004E-5,61,48,41,71043,14389,18387,29740,5846,22192,7402,2965,Tag0,unknown
1542899620968,0,68,1.4941406250000001E-5,61,48,41,71043,14389,18387,29740,5846,22192,7402,2965,Tag0,unknown
1542899620969,0,42,9.228515625000002E-6,61,48,41,71043,14389,18387,29740,5846,22192,7402,2965,Tag0,unknown
1542899620969,0,37,8.1298828125E-6,61,48,41,71043,14389,18387,29740,5846,22192,7402,2965,Tag0,unknown
1542899620969,0,39,8.5693359375E-6,61,48,41,71043,14389,18387,29740,5846,22192,7402,2965,Tag0,unknown
1542899620969,0,41,9.008789062499999E-6,61,48,41,71043,14389,18387,29740,5846,22192,7402,2965,Tag0,unknown
1542899620969,0,52,1.142578125E-5,61,48,41,71043,14389,18387,29740,5846,22192,7402,2965,Tag0,unknown
1542899621000,0,58,1.2744140625E-5,61,48,41,71043,14389,18387,29740,5846,22192,7402,2965,Tag0,unknown
1542899621001,0,56,1.23046875E-5,61,48,41,71043,14389,18387,29740,5846,22192,7402,2965,Tag0,unknown
1542899621002,0,44,9.66796875E-6,61,48,41,71043,14389,18387,29740,5846,22192,7402,2965,Tag0,unknown
1542899621002,0,38,8.349609375E-6,61,48,41,71043,14389,18387,29740,5846,22192,7402,2965,Tag0,unknown
1542899621003,0,23,5.0537109375E-6,61,48,41,71043,14389,18387,29740,5846,22192,7402,2965,Tag0,unknown
1542899621003,0,33,7.2509765625E-6,61,48,41,71043,14389,18387,29740,5846,22192,7402,2965,Tag0,unknown
1542899621003,0,44,9.66796875E-6,61,48,41,71043,14389,18387,29740,5846,22192,7402,2965,Tag0,unknown
1542899621003,0,37,8.1298828125E-6,61,48,41,71043,14389,18387,29740,5846,22192,7402,2965,Tag0,unknown
1542899621004,0,27,5.9326171875000005E-6,61,48,41,71043,14389,18387,29740,5846,22192,7402,2965,Tag0,unknown
1542899621004,0,21,4.614257812500001E-6,61,48,41,71043,14389,18387,29740,5846,22192,7402,2965,Tag0,unknown
1542899621004,0,7,1.5380859375E-6,61,48,41,71043,14389,18387,29740,5846,22192,7402,2965,Tag0,unknown
1542899621004,0,-260,-5.712890625E-5,61,48,41,71043,14389,18387,29740,5846,22192,7402,2965,Tag0,unknown
1542899621004,0,2,4.39453125E-7,61,48,41,71043,14389,18387,29740,5846,22192,7402,2965,Tag0,unknown
1542899621005,0,18,3.955078125E-6,61,48,41,71043,14389,18387,29740,5846,22192,7402,2965,Tag0,unknown
1542899621005,0,34,7.4707031250000005E-6,61,48,41,71043,14389,18387,29740,5846,22192,7402,2965,Tag0,unknown
1542899621005,0,16,3.515625E-6,61,48,41,71043,14389,18387,29740,5846,22192,7402,2965,Tag0,unknown
1542899621018,0,-268,-5.8886718750000006E-5,61,48,41,71043,14389,18387,29740,5846,22192,7402,2965,Tag0,unknown
1542899621018,0,-273,-5.998535156250001E-5,61,48,41,71043,14389,18387,29740,5846,22192,7402,2965,Tag0,unknown
1542899621019,0,2,4.39453125E-7,61,48,41,71043,14389,18387,29740,5846,22192,7402,2965,Tag0,unknown
1542899621019,0,20,4.39453125E-6,61,48,41,71043,14389,18387,29740,5846,22192,7402,2965,Tag0,unknown
1542899621019,0,36,7.91015625E-6,61,48,41,71043,14389,18387,29740,5846,22192,7402,2965,Tag0,unknown
1542899621019,0,43,9.448242187500001E-6,61,48,41,71043,14389,18387,29740,5846,22192,7402,2965,Tag0,unknown
1542899621019,0,44,9.66796875E-6,61,48,41,71043,14389,18387,29740,5846,22192,7402,2965,Tag0,unknown
1542899621019,0,34,7.4707031250000005E-6,61,48,41,71043,14389,18387,29740,5846,22192,7402,2965,Tag0,unknown
1542899621019,0,11,2.4169921875E-6,61,48,41,71043,14389,18387,29740,5846,22192,7402,2965,Tag0,unknown
1542899621020,0,0,0.0,61,48,41,71043,14389,18387,29740,5846,22192,7402,2965,Tag0,unknown
1542899621020,0,8,1.7578125E-6,61,48,41,71043,14389,18387,29740,5846,22192,7402,2965,Tag0,unknown
1542899621037,0,37,8.1298828125E-6,61,48,41,71043,14389,18387,29740,5846,22192,7402,2965,Tag0,unknown
1542899621037,0,42,9.228515625000002E-6,61,48,41,71043,14389,18387,29740,5846,22192,7402,2965,Tag0,unknown
1542899621038,0,27,5.9326171875000005E-6,61,48,41,71043,14389,18387,29740,5846,22192,7402,2965,Tag0,unknown
1542899621038,0,24,5.2734375E-6,61,48,41,71043,14389,18387,29740,5846,22192,7402,2965,Tag0,unknown
1542899621039,0,40,8.7890625E-6,61,48,41,71043,14389,18387,29740,5846,22192,7402,2965,Tag0,unknown
1542899621040,0,59,1.29638671875E-5,61,48,41,71043,14389,18387,29740,5846,22192,7402,2965,Tag0,unknown
1542899621040,0,56,1.23046875E-5,61,48,41,71043,14389,18387,29740,5846,22192,7402,2965,Tag0,unknown
1542899621041,0,37,8.1298828125E-6,61,48,41,71043,14389,18387,29740,5846,22192,7402,2965,Tag0,unknown
1542899621041,0,33,7.2509765625E-6,61,48,41,71043,14389,18387,29740,5846,22192,7402,2965,Tag0,unknown
1542899621052,0,32,7.03125E-6,61,48,41,71043,14389,18387,29740,5846,22192,7402,2965,Tag0,unknown
1542899621053,0,45,9.8876953125E-6,61,48,41,71043,14389,18387,29740,5846,22192,7402,2965,Tag0,unknown
1542899621054,0,73,1.6040039062500002E-5,61,48,41,71043,14389,18387,29740,5846,22192,7402,2965,Tag0,unknown
1542899621054,0,72,1.58203125E-5,61,48,41,71043,14389,18387,29740,5846,22192,7402,2965,Tag0,unknown
1542899621056,0,54,1.1865234375000001E-5,61,48,41,71043,14389,18387,29740,5846,22192,7402,2965,Tag0,unknown
1542899621056,0,34,7.4707031250000005E-6,61,48,41,71043,14389,18387,29740,5846,22192,7402,2965,Tag0,unknown
1542899621057,0,22,4.833984375E-6,61,48,41,71043,14389,18387,29740,5846,22192,7402,2965,Tag0,unknown
1542899621070,0,27,5.9326171875000005E-6,61,48,41,71043,14389,18387,29740,5846,22192,7402,2965,Tag0,unknown
1542899621070,0,35,7.6904296875E-6,61,48,41,71043,14389,18387,29740,5846,22192,7402,2965,Tag0,unknown
1542899621071,0,32,7.03125E-6,61,48,41,71043,14389,18387,29740,5846,22192,7402,2965,Tag0,unknown
1542899621071,0,23,5.0537109375E-6,61,48,41,71043,14389,18387,29740,5846,22192,7402,2965,Tag0,unknown
1542899621071,0,20,4.39453125E-6,61,48,41,71043,14389,18387,29740,5846,22192,7402,2965,Tag0,unknown
1542899621085,0,8,1.7578125E-6,61,48,41,71043,14389,18387,29740,5846,22192,7402,2965,Tag0,unknown
1542899621086,0,7,1.5380859375E-6,61,48,41,71043,14389,18387,29740,5846,22192,7402,2965,Tag0,unknown
1542899621086,0,11,2.4169921875E-6,61,48,41,71043,14389,18387,29740,5846,22192,7402,2965,Tag0,unknown
1542899621086,0,17,3.7353515625000003E-6,61,48,41,71043,14389,18387,29740,5846,22192,7402,2965,Tag0,unknown
1542899621086,0,-259,-5.69091796875E-5,61,48,41,71043,14389,18387,29740,5846,22192,7402,2965,Tag0,unknown
1542899621087,0,-283,-6.218261718750001E-5,61,48,41,71043,14389,18387,29740,5846,22192,7402,2965,Tag0,unknown
1542899621087,0,-283,-6.218261718750001E-5,61,48,41,71043,14389,18387,29740,5846,22192,7402,2965,Tag0,unknown
1542899621087,0,-268,-5.8886718750000006E-5,61,48,41,71043,14389,18387,29740,5846,22192,7402,2965,Tag0,unknown
1542899621087,0,6,1.318359375E-6,61,48,41,71043,14389,18387,29740,5846,22192,7402,2965,Tag0,unknown
1542899621087,0,22,4.833984375E-6,61,48,41,71043,14389,18387,29740,5846,22192,7402,2965,Tag0,unknown
1542899621088,0,26,5.712890625E-6,61,48,41,71043,14389,18387,29740,5846,22192,7402,2965,Tag0,unknown
1542899621088,0,35,7.6904296875E-6,61,48,41,71043,14389,18387,29740,5846,22192,7402,2965,Tag0,unknown
1542899621105,0,41,9.008789062499999E-6,61,48,41,71043,14389,18387,29740,5846,22192,7402,2965,Tag0,unknown
1542899621106,0,57,1.2524414062500001E-5,61,48,41,71043,14389,18387,29740,5846,22192,7402,2965,Tag0,unknown
1542899621106,0,71,1.56005859375E-5,61,48,41,71043,14389,18387,29740,5846,22192,7402,2965,Tag0,unknown
1542899621106,0,53,1.1645507812500002E-5,61,48,41,71043,14389,18387,29740,5846,22192,7402,2965,Tag0,unknown
1542899621106,0,42,9.228515625000002E-6,61,48,41,71043,14389,18387,29740,5846,22192,7402,2965,Tag0,unknown
1542899621107,0,64,1.40625E-5,61,48,41,71043,14389,18387,29740,5846,22192,7402,2965,Tag0,unknown
1542899621107,0,68,1.4941406250000001E-5,61,48,41,71043,14389,18387,29740,5846,22192,7402,2965,Tag0,unknown
1542899621107,0,53,1.1645507812500002E-5,61,48,41,71043,14389,18387,29740,5846,22192,7402,2965,Tag0,unknown
1542899621107,0,55,1.20849609375E-5,61,48,41,71043,14389,18387,29740,5846,22192,7402,2965,Tag0,unknown
1542899621118,0,71,1.56005859375E-5,61,48,41,71043,14389,18387,29740,5846,22192,7402,2965,Tag0,unknown
1542899621119,0,66,1.4501953125E-5,61,48,41,71043,14389,18387,29740,5846,22192,7402,2965,Tag0,unknown
1542899621119,0,51,1.1206054687499999E-5,61,48,41,71043,14389,18387,29740,5846,22192,7402,2965,Tag0,unknown
1542899621119,0,52,1.142578125E-5,61,48,41,71043,14389,18387,29740,5846,22192,7402,2965,Tag0,unknown
1542899621119,0,73,1.6040039062500002E-5,61,48,41,71043,14389,18387,29740,5846,22192,7402,2965,Tag0,unknown
1542899621119,0,85,1.86767578125E-5,61,48,41,71043,14389,18387,29740,5846,22192,7402,2965,Tag0,unknown
1542899621120,0,73,1.6040039062500002E-5,61,48,41,71043,14389,18387,29740,5846,22192,7402,2965,Tag0,unknown
1542899621120,0,71,1.56005859375E-5,61,48,41,71043,14389,18387,29740,5846,22192,7402,2965,Tag0,unknown
1542899621136,0,86,1.8896484375000003E-5,61,48,41,71043,14389,18387,29740,5846,22192,7402,2965,Tag0,unknown
1542899621136,0,96,2.109375E-5,61,48,41,71043,14389,18387,29740,5846,22192,7402,2965,Tag0,unknown
1542899621137,0,98,2.1533203125E-5,61,48,41,71043,14389,18387,29740,5846,22192,7402,2965,Tag0,unknown
1542899621137,0,87,1.91162109375E-5,61,48,41,71043,14389,18387,29740,5846,22192,7402,2965,Tag0,unknown
1542899621138,0,72,1.58203125E-5,61,48,41,71043,14389,18387,29740,5846,22192,7402,2965,Tag0,unknown
1542899621138,0,70,1.5380859375E-5,61,48,41,71043,14389,18387,29740,5846,22192,7402,2965,Tag0,unknown
1542899621139,0,71,1.56005859375E-5,61,48,41,71043,14389,18387,29740,5846,22192,7402,2965,Tag0,unknown
1542899621139,0,59,1.29638671875E-5,61,48,41,71043,14389,18387,29740,5846,22192,7402,2965,Tag0,unknown
1542899621140,0,35,7.6904296875E-6,61,48,41,71043,14389,18387,29740,5846,22192,7402,2965,Tag0,unknown
1542899621141,0,7,1.5380859375E-6,61,48,41,71043,14389,18387,29740,5846,22192,7402,2965,Tag0,unknown
1542899621153,0,-260,-5.712890625E-5,61,48,41,71043,14389,18387,29740,5846,22192,7402,2965,Tag0,unknown
1542899621153,0,2,4.39453125E-7,61,48,41,71043,14389,18387,29740,5846,22192,7402,2965,Tag0,unknown
1542899621154,0,20,4.39453125E-6,61,48,41,71043,14389,18387,29740,5846,22192,7402,2965,Tag0,unknown
1542899621154,0,23,5.0537109375E-6,61,48,41,71043,14389,18387,29740,5846,22192,7402,2965,Tag0,unknown
1542899621154,0,28,6.15234375E-6,61,48,41,71043,14389,18387,29740,5846,22192,7402,2965,Tag0,unknown
1542899621156,0,56,1.23046875E-5,61,48,41,71043,14389,18387,29740,5846,22192,7402,2965,Tag0,unknown
1542899621156,0,69,1.51611328125E-5,61,48,41,71043,14389,18387,29740,5846,22192,7402,2965,Tag0,unknown
1542899621156,0,64,1.40625E-5,61,48,41,71043,14389,18387,29740,5846,22192,7402,2965,Tag0,unknown
1542899621170,0,60,1.318359375E-5,61,48,41,71043,14389,18387,29740,5846,22192,7402,2965,Tag0,unknown
1542899621170,0,68,1.4941406250000001E-5,61,48,41,71043,14389,18387,29740,5846,22192,7402,2965,Tag0,unknown
1542899621171,0,80,1.7578125E-5,61,48,41,71043,14389,18387,29740,5846,22192,7402,2965,Tag0,unknown
1542899621171,0,71,1.56005859375E-5,61,48,41,71043,14389,18387,29740,5846,22192,7402,2965,Tag0,unknown
1542899621172,0,65,1.42822265625E-5,61,48,41,71043,14389,18387,29740,5846,22192,7402,2965,Tag0,unknown
1542899621172,0,70,1.5380859375E-5,61,48,41,71043,14389,18387,29740,5846,22192,7402,2965,Tag0,unknown
1542899621172,0,66,1.4501953125E-5,61,48,41,71043,14389,18387,29740,5846,22192,7402,2965,Tag0,unknown
1542899621173,0,52,1.142578125E-5,61,48,41,71043,14389,18387,29740,5846,22192,7402,2965,Tag0,unknown
1542899621186,0,53,1.1645507812500002E-5,61,48,41,71043,14389,18387,29740,5846,22192,7402,2965,Tag0,unknown
1542899621187,0,59,1.29638671875E-5,61,48,41,71043,14389,18387,29740,5846,22192,7402,2965,Tag0,unknown
1542899621187,0,43,9.448242187500001E-6,61,48,41,71043,14389,18387,29740,5846,22192,7402,2965,Tag0,unknown
1542899621188,0,21,4.614257812500001E-6,61,48,41,71043,14389,18387,29740,5846,22192,7402,2965,Tag0,unknown
1542899621188,0,13,2.8564453125E-6,61,48,41,71043,14389,18387,29740,5846,22192,7402,2965,Tag0,unknown
1542899621188,0,20,4.39453125E-6,61,48,41,71043,14389,18387,29740,5846,22192,7402,2965,Tag0,unknown
1542899621248,0,29,6.3720703125E-6,54,60,41,89452,16749765,2750,16759258,15387,17681,8578,935,Tag0,unknown
1542899621248,0,25,5.4931640625E-6,54,60,41,89452,16749765,2750,16759258,15387,17681,8578,935,Tag0,unknown
1542899621249,0,18,3.955078125E-6,54,60,41,89452,16749765,2750,16759258,15387,17681,8578,935,Tag0,unknown
1542899621249,0,34,7.4707031250000005E-6,54,60,41,89452,16749765,2750,16759258,15387,17681,8578,935,Tag0,unknown
1542899621249,0,45,9.8876953125E-6,54,60,41,89452,16749765,2750,16759258,15387,17681,8578,935,Tag0,unknown
1542899621250,0,28,6.15234375E-6,54,60,41,89452,16749765,2750,16759258,15387,17681,8578,935,Tag0,unknown
1542899621250,0,49,1.07666015625E-5,54,60,41,89452,16749765,2750,16759258,15387,17681,8578,935,Tag0,unknown
1542899621250,0,71,1.56005859375E-5,54,60,41,89452,16749765,2750,16759258,15387,17681,8578,935,Tag0,unknown
1542899621254,0,70,1.5380859375E-5,54,60,41,89452,16749765,2750,16759258,15387,17681,8578,935,Tag0,unknown
1542899621256,0,66,1.4501953125E-5,54,60,41,89452,16749765,2750,16759258,15387,17681,8578,935,Tag0,unknown
1542899621256,0,60,1.318359375E-5,54,60,41,89452,16749765,2750,16759258,15387,17681,8578,935,Tag0,unknown
1542899621256,0,66,1.4501953125E-5,54,60,41,89452,16749765,2750,16759258,15387,17681,8578,935,Tag0,unknown
1542899621257,0,87,1.91162109375E-5,54,60,41,89452,16749765,2750,16759258,15387,17681,8578,935,Tag0,unknown
1542899621257,0,98,2.1533203125E-5,54,60,41,89452,16749765,2750,16759258,15387,17681,8578,935,Tag0,unknown
1542899621257,0,84,1.8457031250000004E-5,54,60,41,89452,16749765,2750,16759258,15387,17681,8578,935,Tag0,unknown
1542899621257,0,59,1.29638671875E-5,54,60,41,89452,16749765,2750,16759258,15387,17681,8578,935,Tag0,unknown
1542899621258,0,37,8.1298828125E-6,54,60,41,89452,16749765,2750,16759258,15387,17681,8578,935,Tag0,unknown
1542899621258,0,18,3.955078125E-6,54,60,41,89452,16749765,2750,16759258,15387,17681,8578,935,Tag0,unknown
1542899621258,0,29,6.3720703125E-6,54,60,41,89452,16749765,2750,16759258,15387,17681,8578,935,Tag0,unknown
1542899621258,0,55,1.20849609375E-5,54,60,41,89452,16749765,2750,16759258,15387,17681,8578,935,Tag0,unknown
1542899621258,0,54,1.1865234375000001E-5,54,60,41,89452,16749765,2750,16759258,15387,17681,8578,935,Tag0,unknown
1542899621259,0,39,8.5693359375E-6,54,60,41,89452,16749765,2750,16759258,15387,17681,8578,935,Tag0,unknown
1542899621259,0,43,9.448242187500001E-6,54,60,41,89452,16749765,2750,16759258,15387,17681,8578,935,Tag0,unknown
1542899621259,0,64,1.40625E-5,54,60,41,89452,16749765,2750,16759258,15387,17681,8578,935,Tag0,unknown
1542899621259,0,59,1.29638671875E-5,54,60,41,89452,16749765,2750,16759258,15387,17681,8578,935,Tag0,unknown
1542899621260,0,40,8.7890625E-6,54,60,41,89452,16749765,2750,16759258,15387,17681,8578,935,Tag0,unknown
1542899621260,0,32,7.03125E-6,54,60,41,89452,16749765,2750,16759258,15387,17681,8578,935,Tag0,unknown
1542899621260,0,44,9.66796875E-6,54,60,41,89452,16749765,2750,16759258,15387,17681,8578,935,Tag0,unknown
1542899621261,0,58,1.2744140625E-5,54,60,41,89452,16749765,2750,16759258,15387,17681,8578,935,Tag0,unknown
1542899621261,0,49,1.07666015625E-5,54,60,41,89452,16749765,2750,16759258,15387,17681,8578,935,Tag0,unknown
1542899621261,0,37,8.1298828125E-6,54,60,41,89452,16749765,2750,16759258,15387,17681,8578,935,Tag0,unknown
1542899621261,0,37,8.1298828125E-6,54,60,41,89452,16749765,2750,16759258,15387,17681,8578,935,Tag0,unknown
1542899621262,0,43,9.448242187500001E-6,54,60,41,89452,16749765,2750,16759258,15387,17681,8578,935,Tag0,unknown
1542899621262,0,45,9.8876953125E-6,54,60,41,89452,16749765,2750,16759258,15387,17681,8578,935,Tag0,unknown
1542899621263,0,38,8.349609375E-6,54,60,41,89452,16749765,2750,16759258,15387,17681,8578,935,Tag0,unknown
1542899621263,0,32,7.03125E-6,54,60,41,89452,16749765,2750,16759258,15387,17681,8578,935,Tag0,unknown
1542899621263,0,24,5.2734375E-6,54,60,41,89452,16749765,2750,16759258,15387,17681,8578,935,Tag0,unknown
1542899621263,0,12,2.63671875E-6,54,60,41,89452,16749765,2750,16759258,15387,17681,8578,935,Tag0,unknown
1542899621264,0,16,3.515625E-6,54,60,41,89452,16749765,2750,16759258,15387,17681,8578,935,Tag0,unknown
1542899621269,0,24,5.2734375E-6,54,60,41,89452,16749765,2750,16759258,15387,17681,8578,935,Tag0,unknown
1542899621269,0,29,6.3720703125E-6,54,60,41,89452,16749765,2750,16759258,15387,17681,8578,935,Tag0,unknown
1542899621269,0,25,5.4931640625E-6,54,60,41,89452,16749765,2750,16759258,15387,17681,8578,935,Tag0,unknown
1542899621269,0,-259,-5.69091796875E-5,54,60,41,89452,16749765,2750,16759258,15387,17681,8578,935,Tag0,unknown
1542899621269,0,-283,-6.218261718750001E-5,54,60,41,89452,16749765,2750,16759258,15387,17681,8578,935,Tag0,unknown
1542899621269,0,-275,-6.04248046875E-5,54,60,41,89452,16749765,2750,16759258,15387,17681,8578,935,Tag0,unknown
1542899621285,0,-263,-5.7788085937500005E-5,54,60,41,89452,16749765,2750,16759258,15387,17681,8578,935,Tag0,unknown
1542899621285,0,-258,-5.6689453125000004E-5,54,60,41,89452,16749765,2750,16759258,15387,17681,8578,935,Tag0,unknown
1542899621285,0,-259,-5.69091796875E-5,54,60,41,89452,16749765,2750,16759258,15387,17681,8578,935,Tag0,unknown
1542899621285,0,-265,-5.82275390625E-5,54,60,41,89452,16749765,2750,16759258,15387,17681,8578,935,Tag0,unknown
1542899621286,0,3,6.591796875E-7,54,60,41,89452,16749765,2750,16759258,15387,17681,8578,935,Tag0,unknown
1542899621286,0,27,5.9326171875000005E-6,54,60,41,89452,16749765,2750,16759258,15387,17681,8578,935,Tag0,unknown
1542899621286,0,38,8.349609375E-6,54,60,41,89452,16749765,2750,16759258,15387,17681,8578,935,Tag0,unknown
1542899621286,0,32,7.03125E-6,54,60,41,89452,16749765,2750,16759258,15387,17681,8578,935,Tag0,unknown
1542899621286,0,21,4.614257812500001E-6,54,60,41,89452,16749765,2750,16759258,15387,17681,8578,935,Tag0,unknown
1542899621301,0,23,5.0537109375E-6,54,60,41,89452,16749765,2750,16759258,15387,17681,8578,935,Tag0,unknown
1542899621301,0,33,7.2509765625E-6,54,60,41,89452,16749765,2750,16759258,15387,17681,8578,935,Tag0,unknown
1542899621302,0,28,6.15234375E-6,54,60,41,89452,16749765,2750,16759258,15387,17681,8578,935,Tag0,unknown
1542899621302,0,23,5.0537109375E-6,54,60,41,89452,16749765,2750,16759258,15387,17681,8578,935,Tag0,unknown
1542899621302,0,34,7.4707031250000005E-6,54,60,41,89452,16749765,2750,16759258,15387,17681,8578,935,Tag0,unknown
1542899621302,0,54,1.1865234375000001E-5,54,60,41,89452,16749765,2750,16759258,15387,17681,8578,935,Tag0,unknown
1542899621302,0,76,1.669921875E-5,54,60,41,89452,16749765,2750,16759258,15387,17681,8578,935,Tag0,unknown
1542899621302,0,84,1.8457031250000004E-5,54,60,41,89452,16749765,2750,16759258,15387,17681,8578,935,Tag0,unknown
1542899621319,0,75,1.64794921875E-5,54,60,41,89452,16749765,2750,16759258,15387,17681,8578,935,Tag0,unknown
1542899621319,0,60,1.318359375E-5,54,60,41,89452,16749765,2750,16759258,15387,17681,8578,935,Tag0,unknown
1542899621320,0,54,1.1865234375000001E-5,54,60,41,89452,16749765,2750,16759258,15387,17681,8578,935,Tag0,unknown
1542899621320,0,55,1.20849609375E-5,54,60,41,89452,16749765,2750,16759258,15387,17681,8578,935,Tag0,unknown
1542899621320,0,42,9.228515625000002E-6,54,60,41,89452,16749765,2750,16759258,15387,17681,8578,935,Tag0,unknown
1542899621321,0,29,6.3720703125E-6,54,60,41,89452,16749765,2750,16759258,15387,17681,8578,935,Tag0,unknown
1542899621321,0,18,3.955078125E-6,54,60,41,89452,16749765,2750,16759258,15387,17681,8578,935,Tag0,unknown
1542899621321,0,16,3.515625E-6,54,60,41,89452,16749765,2750,16759258,15387,17681,8578,935,Tag0,unknown
1542899621321,0,12,2.63671875E-6,54,60,41,89452,16749765,2750,16759258,15387,17681,8578,935,Tag0,unknown
1542899621336,0,4,8.7890625E-7,54,60,41,89452,16749765,2750,16759258,15387,17681,8578,935,Tag0,unknown
1542899621337,0,-261,-5.73486328125E-5,54,60,41,89452,16749765,2750,16759258,15387,17681,8578,935,Tag0,unknown
1542899621337,0,-261,-5.73486328125E-5,54,60,41,89452,16749765,2750,16759258,15387,17681,8578,935,Tag0,unknown
1542899621337,0,3,6.591796875E-7,54,60,41,89452,16749765,2750,16759258,15387,17681,8578,935,Tag0,unknown
1542899621338,0,21,4.614257812500001E-6,54,60,41,89452,16749765,2750,16759258,15387,17681,8578,935,Tag0,unknown
1542899621338,0,49,1.07666015625E-5,54,60,41,89452,16749765,2750,16759258,15387,17681,8578,935,Tag0,unknown
1542899621338,0,60,1.318359375E-5,54,60,41,89452,16749765,2750,16759258,15387,17681,8578,935,Tag0,unknown
1542899621338,0,65,1.42822265625E-5,54,60,41,89452,16749765,2750,16759258,15387,17681,8578,935,Tag0,unknown
1542899621353,0,57,1.2524414062500001E-5,54,60,41,89452,16749765,2750,16759258,15387,17681,8578,935,Tag0,unknown
1542899621354,0,59,1.29638671875E-5,54,60,41,89452,16749765,2750,16759258,15387,17681,8578,935,Tag0,unknown
1542899621354,0,69,1.51611328125E-5,54,60,41,89452,16749765,2750,16759258,15387,17681,8578,935,Tag0,unknown
1542899621355,0,55,1.20849609375E-5,54,60,41,89452,16749765,2750,16759258,15387,17681,8578,935,Tag0,unknown
1542899621355,0,32,7.03125E-6,54,60,41,89452,16749765,2750,16759258,15387,17681,8578,935,Tag0,unknown
1542899621356,0,27,5.9326171875000005E-6,54,60,41,89452,16749765,2750,16759258,15387,17681,8578,935,Tag0,unknown
1542899621356,0,40,8.7890625E-6,54,60,41,89452,16749765,2750,16759258,15387,17681,8578,935,Tag0,unknown
1542899621356,0,33,7.2509765625E-6,54,60,41,89452,16749765,2750,16759258,15387,17681,8578,935,Tag0,unknown
1542899621357,0,7,1.5380859375E-6,54,60,41,89452,16749765,2750,16759258,15387,17681,8578,935,Tag0,unknown
1542899621370,0,-270,-5.9326171875E-5,54,60,41,89452,16749765,2750,16759258,15387,17681,8578,935,Tag0,unknown
1542899621371,0,-275,-6.04248046875E-5,54,60,41,89452,16749765,2750,16759258,15387,17681,8578,935,Tag0,unknown
1542899621371,0,-265,-5.82275390625E-5,54,60,41,89452,16749765,2750,16759258,15387,17681,8578,935,Tag0,unknown
1542899621371,0,-269,-5.9106445312499996E-5,54,60,41,89452,16749765,2750,16759258,15387,17681,8578,935,Tag0,unknown
1542899621372,0,-266,-5.8447265625E-5,54,60,41,89452,16749765,2750,16759258,15387,17681,8578,935,Tag0,unknown
1542899621374,0,9,1.9775390625E-6,54,60,41,89452,16749765,2750,16759258,15387,17681,8578,935,Tag0,unknown
1542899621374,0,10,2.197265625E-6,54,60,41,89452,16749765,2750,16759258,15387,17681,8578,935,Tag0,unknown
1542899621374,0,28,6.15234375E-6,54,60,41,89452,16749765,2750,16759258,15387,17681,8578,935,Tag0,unknown
1542899621375,0,75,1.64794921875E-5,54,60,41,89452,16749765,2750,16759258,15387,17681,8578,935,Tag0,unknown
1542899621388,0,89,1.95556640625E-5,54,60,41,89452,16749765,2750,16759258,15387,17681,8578,935,Tag0,unknown
