timestampMs,poorSignal,eegRawValue,eegRawValueVolts,attention,meditation,blinkStrength,delta,theta,alphaLow,alphaHigh,betaLow,betaHigh,gammaLow,gammaMid,action
1.54436E+12,0,28,6.15E-06,47,54,46,148737,14672,6834,3830,2073,1738,794,437,down
1.54436E+12,0,42,9.23E-06,47,54,46,148737,14672,6834,3830,2073,1738,794,437,down
1.54436E+12,0,19,4.17E-06,47,54,46,148737,14672,6834,3830,2073,1738,794,437,down
1.54436E+12,0,26,5.71E-06,47,54,46,148737,14672,6834,3830,2073,1738,794,437,down
1.54436E+12,0,84,1.85E-05,47,54,46,148737,14672,6834,3830,2073,1738,794,437,down
1.54436E+12,0,124,2.72E-05,47,54,46,148737,14672,6834,3830,2073,1738,794,437,down
1.54436E+12,0,-127,-2.79E-05,47,54,46,148737,14672,6834,3830,2073,1738,794,437,down
1.54436E+12,0,-126,-2.77E-05,47,54,46,148737,14672,6834,3830,2073,1738,794,437,down
1.54436E+12,0,-121,-2.66E-05,47,54,46,148737,14672,6834,3830,2073,1738,794,437,down
1.54436E+12,0,123,2.70E-05,47,54,46,148737,14672,6834,3830,2073,1738,794,437,down
1.54436E+12,0,102,2.24E-05,47,54,46,148737,14672,6834,3830,2073,1738,794,437,down
1.54436E+12,0,83,1.82E-05,47,54,46,148737,14672,6834,3830,2073,1738,794,437,down
1.54436E+12,0,57,1.25E-05,47,54,46,148737,14672,6834,3830,2073,1738,794,437,down
1.54436E+12,0,26,5.71E-06,47,54,46,148737,14672,6834,3830,2073,1738,794,437,down
1.54436E+12,0,-257,-5.65E-05,47,54,46,148737,14672,6834,3830,2073,1738,794,437,down
1.54436E+12,0,2,4.39E-07,47,54,46,148737,14672,6834,3830,2073,1738,794,437,down
1.54436E+12,0,38,8.35E-06,47,54,46,148737,14672,6834,3830,2073,1738,794,437,down
1.54436E+12,0,60,1.32E-05,47,54,46,148737,14672,6834,3830,2073,1738,794,437,down
1.54436E+12,0,60,1.32E-05,47,54,46,148737,14672,6834,3830,2073,1738,794,437,down
1.54436E+12,0,67,1.47E-05,47,54,46,148737,14672,6834,3830,2073,1738,794,437,down
1.54436E+12,0,82,1.80E-05,47,54,46,148737,14672,6834,3830,2073,1738,794,437,down
1.54436E+12,0,85,1.87E-05,47,54,46,148737,14672,6834,3830,2073,1738,794,437,down
1.54436E+12,0,65,1.43E-05,47,54,46,148737,14672,6834,3830,2073,1738,794,437,down
1.54436E+12,0,53,1.16E-05,47,54,46,148737,14672,6834,3830,2073,1738,794,437,down
1.54436E+12,0,54,1.19E-05,47,54,46,148737,14672,6834,3830,2073,1738,794,437,down
1.54436E+12,0,52,1.14E-05,47,54,46,148737,14672,6834,3830,2073,1738,794,437,down
1.54436E+12,0,27,5.93E-06,47,54,46,148737,14672,6834,3830,2073,1738,794,437,down
1.54436E+12,0,-277,-6.09E-05,47,54,46,148737,14672,6834,3830,2073,1738,794,437,down
1.54436E+12,0,-299,-6.57E-05,47,54,46,148737,14672,6834,3830,2073,1738,794,437,down
1.54436E+12,0,-268,-5.89E-05,47,54,46,148737,14672,6834,3830,2073,1738,794,437,down
1.54436E+12,0,9,1.98E-06,47,54,46,148737,14672,6834,3830,2073,1738,794,437,down
1.54436E+12,0,-264,-5.80E-05,47,54,46,148737,14672,6834,3830,2073,1738,794,437,down
1.54436E+12,0,-292,-6.42E-05,47,54,46,148737,14672,6834,3830,2073,1738,794,437,down
1.54436E+12,0,-296,-6.50E-05,47,54,46,148737,14672,6834,3830,2073,1738,794,437,down
1.54436E+12,0,-268,-5.89E-05,47,54,46,148737,14672,6834,3830,2073,1738,794,437,down
1.54436E+12,0,40,8.79E-06,47,54,46,148737,14672,6834,3830,2073,1738,794,437,down
1.54436E+12,0,84,1.85E-05,47,54,46,148737,14672,6834,3830,2073,1738,794,437,down
1.54436E+12,0,82,1.80E-05,47,54,46,148737,14672,6834,3830,2073,1738,794,437,down
1.54436E+12,0,54,1.19E-05,47,54,46,148737,14672,6834,3830,2073,1738,794,437,down
1.54436E+12,0,25,5.49E-06,47,54,46,148737,14672,6834,3830,2073,1738,794,437,down
1.54436E+12,0,0,0,47,54,46,148737,14672,6834,3830,2073,1738,794,437,down
1.54436E+12,0,-283,-6.22E-05,47,54,46,148737,14672,6834,3830,2073,1738,794,437,down
1.54436E+12,0,-273,-6.00E-05,47,54,46,148737,14672,6834,3830,2073,1738,794,437,down
1.54436E+12,0,24,5.27E-06,47,54,46,148737,14672,6834,3830,2073,1738,794,437,down
1.54436E+12,0,43,9.45E-06,47,54,46,148737,14672,6834,3830,2073,1738,794,437,down
1.54436E+12,0,28,6.15E-06,47,54,46,148737,14672,6834,3830,2073,1738,794,437,down
1.54436E+12,0,-264,-5.80E-05,47,54,46,148737,14672,6834,3830,2073,1738,794,437,down
1.54436E+12,0,-293,-6.44E-05,47,54,46,148737,14672,6834,3830,2073,1738,794,437,down
1.54436E+12,0,-294,-6.46E-05,47,54,46,148737,14672,6834,3830,2073,1738,794,437,down
1.54436E+12,0,-301,-6.61E-05,47,54,46,148737,14672,6834,3830,2073,1738,794,437,down
1.54436E+12,0,-314,-6.90E-05,47,54,46,148737,14672,6834,3830,2073,1738,794,437,down
1.54436E+12,0,-321,-7.05E-05,47,54,46,148737,14672,6834,3830,2073,1738,794,437,down
1.54436E+12,0,-314,-6.90E-05,47,54,46,148737,14672,6834,3830,2073,1738,794,437,down
1.54436E+12,0,-295,-6.48E-05,47,54,46,148737,14672,6834,3830,2073,1738,794,437,down
1.54436E+12,0,-266,-5.84E-05,47,54,46,148737,14672,6834,3830,2073,1738,794,437,down
1.54436E+12,0,-269,-5.91E-05,47,54,46,148737,14672,6834,3830,2073,1738,794,437,down
1.54436E+12,0,-316,-6.94E-05,47,54,46,148737,14672,6834,3830,2073,1738,794,437,down
1.54436E+12,0,-354,-7.78E-05,47,54,46,148737,14672,6834,3830,2073,1738,794,437,down
1.54436E+12,0,-344,-7.56E-05,47,54,46,148737,14672,6834,3830,2073,1738,794,437,down
1.54436E+12,0,-300,-6.59E-05,47,54,46,148737,14672,6834,3830,2073,1738,794,437,down
1.54436E+12,0,-290,-6.37E-05,47,54,46,148737,14672,6834,3830,2073,1738,794,437,down
1.54436E+12,0,-330,-7.25E-05,47,54,46,148737,14672,6834,3830,2073,1738,794,437,down
1.54436E+12,0,-359,-7.89E-05,47,54,46,148737,14672,6834,3830,2073,1738,794,437,down
1.54436E+12,0,-337,-7.40E-05,47,54,46,148737,14672,6834,3830,2073,1738,794,437,down
1.54436E+12,0,-307,-6.75E-05,47,54,46,148737,14672,6834,3830,2073,1738,794,437,down
1.54436E+12,0,-305,-6.70E-05,47,54,46,148737,14672,6834,3830,2073,1738,794,437,down
1.54436E+12,0,-328,-7.21E-05,47,54,46,148737,14672,6834,3830,2073,1738,794,437,down
1.54436E+12,0,-333,-7.32E-05,47,54,46,148737,14672,6834,3830,2073,1738,794,437,down
1.54436E+12,0,-317,-6.97E-05,47,54,46,148737,14672,6834,3830,2073,1738,794,437,down
1.54436E+12,0,-318,-6.99E-05,47,54,46,148737,14672,6834,3830,2073,1738,794,437,down
1.54436E+12,0,-344,-7.56E-05,47,54,46,148737,14672,6834,3830,2073,1738,794,437,down
1.54436E+12,0,-374,-8.22E-05,47,54,46,148737,14672,6834,3830,2073,1738,794,437,down
1.54436E+12,0,-375,-8.24E-05,47,54,46,148737,14672,6834,3830,2073,1738,794,437,down
1.54436E+12,0,-347,-7.62E-05,47,54,46,148737,14672,6834,3830,2073,1738,794,437,down
1.54436E+12,0,-310,-6.81E-05,47,54,46,148737,14672,6834,3830,2073,1738,794,437,down
1.54436E+12,0,-290,-6.37E-05,47,54,46,148737,14672,6834,3830,2073,1738,794,437,down
1.54436E+12,0,-300,-6.59E-05,47,54,46,148737,14672,6834,3830,2073,1738,794,437,down
1.54436E+12,0,-313,-6.88E-05,47,54,46,148737,14672,6834,3830,2073,1738,794,437,down
1.54436E+12,0,-306,-6.72E-05,47,54,46,148737,14672,6834,3830,2073,1738,794,437,down
1.54436E+12,0,-302,-6.64E-05,47,54,46,148737,14672,6834,3830,2073,1738,794,437,down
1.54436E+12,0,-309,-6.79E-05,47,54,46,148737,14672,6834,3830,2073,1738,794,437,down
1.54436E+12,0,-293,-6.44E-05,47,54,46,148737,14672,6834,3830,2073,1738,794,437,down
1.54436E+12,0,1,2.20E-07,47,54,46,148737,14672,6834,3830,2073,1738,794,437,down
1.54436E+12,0,-259,-5.69E-05,47,54,46,148737,14672,6834,3830,2073,1738,794,437,down
1.54436E+12,0,-300,-6.59E-05,47,54,46,148737,14672,6834,3830,2073,1738,794,437,down
1.54436E+12,0,-309,-6.79E-05,47,54,46,148737,14672,6834,3830,2073,1738,794,437,down
1.54436E+12,0,-293,-6.44E-05,47,54,46,148737,14672,6834,3830,2073,1738,794,437,down
1.54436E+12,0,-268,-5.89E-05,47,54,46,148737,14672,6834,3830,2073,1738,794,437,down
1.54436E+12,0,-281,-6.17E-05,47,54,46,148737,14672,6834,3830,2073,1738,794,437,down
1.54436E+12,0,-294,-6.46E-05,47,54,46,148737,14672,6834,3830,2073,1738,794,437,down
1.54436E+12,0,-295,-6.48E-05,47,54,46,148737,14672,6834,3830,2073,1738,794,437,down
1.54436E+12,0,-291,-6.39E-05,47,54,46,148737,14672,6834,3830,2073,1738,794,437,down
1.54436E+12,0,-296,-6.50E-05,47,54,46,148737,14672,6834,3830,2073,1738,794,437,down
1.54436E+12,0,-301,-6.61E-05,47,54,46,148737,14672,6834,3830,2073,1738,794,437,down
1.54436E+12,0,-306,-6.72E-05,47,54,46,148737,14672,6834,3830,2073,1738,794,437,down
1.54436E+12,0,-294,-6.46E-05,47,54,46,148737,14672,6834,3830,2073,1738,794,437,down
1.54436E+12,0,-273,-6.00E-05,47,54,46,148737,14672,6834,3830,2073,1738,794,437,down
1.54436E+12,0,-275,-6.04E-05,47,54,46,148737,14672,6834,3830,2073,1738,794,437,down
1.54436E+12,0,-283,-6.22E-05,47,54,46,148737,14672,6834,3830,2073,1738,794,437,down
1.54436E+12,0,-270,-5.93E-05,47,54,46,148737,14672,6834,3830,2073,1738,794,437,down
1.54436E+12,0,-259,-5.69E-05,47,54,46,148737,14672,6834,3830,2073,1738,794,437,down
1.54436E+12,0,-284,-6.24E-05,47,54,46,148737,14672,6834,3830,2073,1738,794,437,down
1.54436E+12,0,-323,-7.10E-05,47,54,46,148737,14672,6834,3830,2073,1738,794,437,down
1.54436E+12,0,-322,-7.08E-05,47,54,46,148737,14672,6834,3830,2073,1738,794,437,down
1.54436E+12,0,-273,-6.00E-05,47,54,46,148737,14672,6834,3830,2073,1738,794,437,down
1.54436E+12,0,20,4.39E-06,47,54,46,148737,14672,6834,3830,2073,1738,794,437,down
1.54436E+12,0,17,3.74E-06,47,54,46,148737,14672,6834,3830,2073,1738,794,437,down
1.54436E+12,0,2,4.39E-07,47,54,46,148737,14672,6834,3830,2073,1738,794,437,down
1.54436E+12,0,4,8.79E-07,47,54,46,148737,14672,6834,3830,2073,1738,794,437,down
1.54436E+12,0,17,3.74E-06,47,54,46,148737,14672,6834,3830,2073,1738,794,437,down
1.54436E+12,0,17,3.74E-06,47,54,46,148737,14672,6834,3830,2073,1738,794,437,down
1.54436E+12,0,6,1.32E-06,47,54,46,148737,14672,6834,3830,2073,1738,794,437,down
1.54436E+12,0,3,6.59E-07,47,54,46,148737,14672,6834,3830,2073,1738,794,437,down
1.54436E+12,0,2,4.39E-07,47,54,46,148737,14672,6834,3830,2073,1738,794,437,down
1.54436E+12,0,-264,-5.80E-05,47,54,46,148737,14672,6834,3830,2073,1738,794,437,down
1.54436E+12,0,-274,-6.02E-05,47,54,46,148737,14672,6834,3830,2073,1738,794,437,down
1.54436E+12,0,-269,-5.91E-05,47,54,46,148737,14672,6834,3830,2073,1738,794,437,down
1.54436E+12,0,-265,-5.82E-05,41,60,46,125069,16769964,16749549,32527,29139,16666,8491,4816,down
1.54436E+12,0,-267,-5.87E-05,41,60,46,125069,16769964,16749549,32527,29139,16666,8491,4816,down
1.54436E+12,0,-277,-6.09E-05,41,60,46,125069,16769964,16749549,32527,29139,16666,8491,4816,down
1.54436E+12,0,-279,-6.13E-05,41,60,46,125069,16769964,16749549,32527,29139,16666,8491,4816,down
1.54436E+12,0,-262,-5.76E-05,41,60,46,125069,16769964,16749549,32527,29139,16666,8491,4816,down
1.54436E+12,0,33,7.25E-06,41,60,46,125069,16769964,16749549,32527,29139,16666,8491,4816,down
1.54436E+12,0,66,1.45E-05,41,60,46,125069,16769964,16749549,32527,29139,16666,8491,4816,down
1.54436E+12,0,77,1.69E-05,41,60,46,125069,16769964,16749549,32527,29139,16666,8491,4816,down
1.54436E+12,0,58,1.27E-05,41,60,46,125069,16769964,16749549,32527,29139,16666,8491,4816,down
1.54436E+12,0,50,1.10E-05,41,60,46,125069,16769964,16749549,32527,29139,16666,8491,4816,down
1.54436E+12,0,81,1.78E-05,41,60,46,125069,16769964,16749549,32527,29139,16666,8491,4816,down
1.54436E+12,0,123,2.70E-05,41,60,46,125069,16769964,16749549,32527,29139,16666,8491,4816,down
1.54436E+12,0,-93,-2.04E-05,41,60,46,125069,16769964,16749549,32527,29139,16666,8491,4816,down
1.54436E+12,0,-76,-1.67E-05,41,60,46,125069,16769964,16749549,32527,29139,16666,8491,4816,down
1.54436E+12,0,-72,-1.58E-05,41,60,46,125069,16769964,16749549,32527,29139,16666,8491,4816,down
1.54436E+12,0,-89,-1.96E-05,41,60,46,125069,16769964,16749549,32527,29139,16666,8491,4816,down
1.54436E+12,0,107,2.35E-05,41,60,46,125069,16769964,16749549,32527,29139,16666,8491,4816,down
1.54436E+12,0,52,1.14E-05,41,60,46,125069,16769964,16749549,32527,29139,16666,8491,4816,down
1.54436E+12,0,42,9.23E-06,41,60,46,125069,16769964,16749549,32527,29139,16666,8491,4816,down
1.54436E+12,0,66,1.45E-05,41,60,46,125069,16769964,16749549,32527,29139,16666,8491,4816,down
1.54436E+12,0,57,1.25E-05,41,60,46,125069,16769964,16749549,32527,29139,16666,8491,4816,down
1.54436E+12,0,19,4.17E-06,41,60,46,125069,16769964,16749549,32527,29139,16666,8491,4816,down
1.54436E+12,0,-275,-6.04E-05,41,60,46,125069,16769964,16749549,32527,29139,16666,8491,4816,down
1.54436E+12,0,-295,-6.48E-05,41,60,46,125069,16769964,16749549,32527,29139,16666,8491,4816,down
1.54436E+12,0,-284,-6.24E-05,41,60,46,125069,16769964,16749549,32527,29139,16666,8491,4816,down
1.54436E+12,0,-257,-5.65E-05,41,60,46,125069,16769964,16749549,32527,29139,16666,8491,4816,down
1.54436E+12,0,20,4.39E-06,41,60,46,125069,16769964,16749549,32527,29139,16666,8491,4816,down
1.54436E+12,0,25,5.49E-06,41,60,46,125069,16769964,16749549,32527,29139,16666,8491,4816,down
1.54436E+12,0,25,5.49E-06,41,60,46,125069,16769964,16749549,32527,29139,16666,8491,4816,down
1.54436E+12,0,21,4.61E-06,41,60,46,125069,16769964,16749549,32527,29139,16666,8491,4816,down
1.54436E+12,0,12,2.64E-06,41,60,46,125069,16769964,16749549,32527,29139,16666,8491,4816,down
1.54436E+12,0,33,7.25E-06,41,60,46,125069,16769964,16749549,32527,29139,16666,8491,4816,down
1.54436E+12,0,50,1.10E-05,41,60,46,125069,16769964,16749549,32527,29139,16666,8491,4816,down
1.54436E+12,0,50,1.10E-05,41,60,46,125069,16769964,16749549,32527,29139,16666,8491,4816,down
1.54436E+12,0,50,1.10E-05,41,60,46,125069,16769964,16749549,32527,29139,16666,8491,4816,down
1.54436E+12,0,41,9.01E-06,41,60,46,125069,16769964,16749549,32527,29139,16666,8491,4816,down
1.54436E+12,0,40,8.79E-06,41,60,46,125069,16769964,16749549,32527,29139,16666,8491,4816,down
1.54436E+12,0,55,1.21E-05,41,60,46,125069,16769964,16749549,32527,29139,16666,8491,4816,down
1.54436E+12,0,69,1.52E-05,41,60,46,125069,16769964,16749549,32527,29139,16666,8491,4816,down
1.54436E+12,0,65,1.43E-05,41,60,46,125069,16769964,16749549,32527,29139,16666,8491,4816,down
1.54436E+12,0,55,1.21E-05,41,60,46,125069,16769964,16749549,32527,29139,16666,8491,4816,down
1.54436E+12,0,35,7.69E-06,41,60,46,125069,16769964,16749549,32527,29139,16666,8491,4816,down
1.54436E+12,0,21,4.61E-06,41,60,46,125069,16769964,16749549,32527,29139,16666,8491,4816,down
1.54436E+12,0,39,8.57E-06,41,60,46,125069,16769964,16749549,32527,29139,16666,8491,4816,down
1.54436E+12,0,56,1.23E-05,41,60,46,125069,16769964,16749549,32527,29139,16666,8491,4816,down
1.54436E+12,0,37,8.13E-06,41,60,46,125069,16769964,16749549,32527,29139,16666,8491,4816,down
1.54436E+12,0,18,3.96E-06,41,60,46,125069,16769964,16749549,32527,29139,16666,8491,4816,down
1.54436E+12,0,16,3.52E-06,41,60,46,125069,16769964,16749549,32527,29139,16666,8491,4816,down
1.54436E+12,0,41,9.01E-06,41,60,46,125069,16769964,16749549,32527,29139,16666,8491,4816,down
1.54436E+12,0,74,1.63E-05,41,60,46,125069,16769964,16749549,32527,29139,16666,8491,4816,down
1.54436E+12,0,90,1.98E-05,41,60,46,125069,16769964,16749549,32527,29139,16666,8491,4816,down
1.54436E+12,0,80,1.76E-05,41,60,46,125069,16769964,16749549,32527,29139,16666,8491,4816,down
1.54436E+12,0,51,1.12E-05,41,60,46,125069,16769964,16749549,32527,29139,16666,8491,4816,down
1.54436E+12,0,37,8.13E-06,41,60,46,125069,16769964,16749549,32527,29139,16666,8491,4816,down
1.54436E+12,0,36,7.91E-06,41,60,46,125069,16769964,16749549,32527,29139,16666,8491,4816,down
1.54436E+12,0,40,8.79E-06,41,60,46,125069,16769964,16749549,32527,29139,16666,8491,4816,down
1.54436E+12,0,56,1.23E-05,41,60,46,125069,16769964,16749549,32527,29139,16666,8491,4816,down
1.54436E+12,0,60,1.32E-05,41,60,46,125069,16769964,16749549,32527,29139,16666,8491,4816,down
1.54436E+12,0,17,3.74E-06,41,60,46,125069,16769964,16749549,32527,29139,16666,8491,4816,down
1.54436E+12,0,-259,-5.69E-05,41,60,46,125069,16769964,16749549,32527,29139,16666,8491,4816,down
1.54436E+12,0,43,9.45E-06,41,60,46,125069,16769964,16749549,32527,29139,16666,8491,4816,down
1.54436E+12,0,102,2.24E-05,41,60,46,125069,16769964,16749549,32527,29139,16666,8491,4816,down
1.54436E+12,0,119,2.61E-05,41,60,46,125069,16769964,16749549,32527,29139,16666,8491,4816,down
1.54436E+12,0,120,2.64E-05,41,60,46,125069,16769964,16749549,32527,29139,16666,8491,4816,down
1.54436E+12,0,-124,-2.72E-05,41,60,46,125069,16769964,16749549,32527,29139,16666,8491,4816,down
1.54436E+12,0,-122,-2.68E-05,41,60,46,125069,16769964,16749549,32527,29139,16666,8491,4816,down
1.54436E+12,0,121,2.66E-05,41,60,46,125069,16769964,16749549,32527,29139,16666,8491,4816,down
1.54436E+12,0,103,2.26E-05,41,60,46,125069,16769964,16749549,32527,29139,16666,8491,4816,down
1.54436E+12,0,86,1.89E-05,41,60,46,125069,16769964,16749549,32527,29139,16666,8491,4816,down
1.54436E+12,0,68,1.49E-05,41,60,46,125069,16769964,16749549,32527,29139,16666,8491,4816,down
1.54436E+12,0,38,8.35E-06,41,60,46,125069,16769964,16749549,32527,29139,16666,8491,4816,down
1.54436E+12,0,13,2.86E-06,41,60,46,125069,16769964,16749549,32527,29139,16666,8491,4816,down
1.54436E+12,0,9,1.98E-06,41,60,46,125069,16769964,16749549,32527,29139,16666,8491,4816,down
1.54436E+12,0,7,1.54E-06,41,60,46,125069,16769964,16749549,32527,29139,16666,8491,4816,down
1.54436E+12,0,1,2.20E-07,41,60,46,125069,16769964,16749549,32527,29139,16666,8491,4816,down
1.54436E+12,0,16,3.52E-06,41,60,46,125069,16769964,16749549,32527,29139,16666,8491,4816,down
1.54436E+12,0,39,8.57E-06,41,60,46,125069,16769964,16749549,32527,29139,16666,8491,4816,down
1.54436E+12,0,37,8.13E-06,41,60,46,125069,16769964,16749549,32527,29139,16666,8491,4816,down
1.54436E+12,0,18,3.96E-06,41,60,46,125069,16769964,16749549,32527,29139,16666,8491,4816,down
1.54436E+12,0,6,1.32E-06,41,60,46,125069,16769964,16749549,32527,29139,16666,8491,4816,down
1.54436E+12,0,-258,-5.67E-05,41,60,46,125069,16769964,16749549,32527,29139,16666,8491,4816,down
1.54436E+12,0,-266,-5.84E-05,41,60,46,125069,16769964,16749549,32527,29139,16666,8491,4816,down
1.54436E+12,0,-280,-6.15E-05,41,60,46,125069,16769964,16749549,32527,29139,16666,8491,4816,down
1.54436E+12,0,-257,-5.65E-05,41,60,46,125069,16769964,16749549,32527,29139,16666,8491,4816,down
1.54436E+12,0,48,1.05E-05,41,60,46,125069,16769964,16749549,32527,29139,16666,8491,4816,down
1.54436E+12,0,68,1.49E-05,41,60,46,125069,16769964,16749549,32527,29139,16666,8491,4816,down
1.54436E+12,0,51,1.12E-05,41,60,46,125069,16769964,16749549,32527,29139,16666,8491,4816,down
1.54436E+12,0,26,5.71E-06,41,60,46,125069,16769964,16749549,32527,29139,16666,8491,4816,down
1.54436E+12,0,11,2.42E-06,41,60,46,125069,16769964,16749549,32527,29139,16666,8491,4816,down
1.54436E+12,0,13,2.86E-06,41,60,46,125069,16769964,16749549,32527,29139,16666,8491,4816,down
1.54436E+12,0,23,5.05E-06,41,60,46,125069,16769964,16749549,32527,29139,16666,8491,4816,down
1.54436E+12,0,39,8.57E-06,41,60,46,125069,16769964,16749549,32527,29139,16666,8491,4816,down
1.54436E+12,0,34,7.47E-06,41,60,46,125069,16769964,16749549,32527,29139,16666,8491,4816,down
1.54436E+12,0,23,5.05E-06,41,60,46,125069,16769964,16749549,32527,29139,16666,8491,4816,down
1.54436E+12,0,26,5.71E-06,41,60,46,125069,16769964,16749549,32527,29139,16666,8491,4816,down
1.54436E+12,0,41,9.01E-06,41,60,46,125069,16769964,16749549,32527,29139,16666,8491,4816,down
1.54436E+12,0,42,9.23E-06,41,60,46,125069,16769964,16749549,32527,29139,16666,8491,4816,down
1.54436E+12,0,25,5.49E-06,41,60,46,125069,16769964,16749549,32527,29139,16666,8491,4816,down
1.54436E+12,0,20,4.39E-06,41,60,46,125069,16769964,16749549,32527,29139,16666,8491,4816,down
1.54436E+12,0,40,8.79E-06,41,60,46,125069,16769964,16749549,32527,29139,16666,8491,4816,down
1.54436E+12,0,57,1.25E-05,41,60,46,125069,16769964,16749549,32527,29139,16666,8491,4816,down
1.54436E+12,0,37,8.13E-06,41,60,46,125069,16769964,16749549,32527,29139,16666,8491,4816,down
1.54436E+12,0,7,1.54E-06,41,60,46,125069,16769964,16749549,32527,29139,16666,8491,4816,down
1.54436E+12,0,8,1.76E-06,41,60,46,125069,16769964,16749549,32527,29139,16666,8491,4816,down
1.54436E+12,0,32,7.03E-06,41,60,46,125069,16769964,16749549,32527,29139,16666,8491,4816,down
1.54436E+12,0,52,1.14E-05,41,60,46,125069,16769964,16749549,32527,29139,16666,8491,4816,down
1.54436E+12,0,57,1.25E-05,41,60,46,125069,16769964,16749549,32527,29139,16666,8491,4816,down
1.54436E+12,0,39,8.57E-06,41,60,46,125069,16769964,16749549,32527,29139,16666,8491,4816,down
1.54436E+12,0,19,4.17E-06,41,60,46,125069,16769964,16749549,32527,29139,16666,8491,4816,down
1.54436E+12,0,35,7.69E-06,41,60,46,125069,16769964,16749549,32527,29139,16666,8491,4816,down
1.54436E+12,0,58,1.27E-05,41,60,46,125069,16769964,16749549,32527,29139,16666,8491,4816,down
1.54436E+12,0,43,9.45E-06,41,60,46,125069,16769964,16749549,32527,29139,16666,8491,4816,down
1.54436E+12,0,19,4.17E-06,41,60,46,125069,16769964,16749549,32527,29139,16666,8491,4816,down
1.54436E+12,0,6,1.32E-06,41,60,46,125069,16769964,16749549,32527,29139,16666,8491,4816,down
1.54436E+12,0,-268,-5.89E-05,41,60,46,125069,16769964,16749549,32527,29139,16666,8491,4816,down
1.54436E+12,0,-326,-7.16E-05,41,60,46,125069,16769964,16749549,32527,29139,16666,8491,4816,down
1.54436E+12,0,-372,-8.17E-05,41,60,46,125069,16769964,16749549,32527,29139,16666,8491,4816,down
1.54436E+12,0,-343,-7.54E-05,41,60,46,125069,16769964,16749549,32527,29139,16666,8491,4816,down
1.54436E+12,0,-279,-6.13E-05,41,60,46,125069,16769964,16749549,32527,29139,16666,8491,4816,down
1.54436E+12,0,9,1.98E-06,41,60,46,125069,16769964,16749549,32527,29139,16666,8491,4816,down
1.54436E+12,0,23,5.05E-06,41,60,46,125069,16769964,16749549,32527,29139,16666,8491,4816,down
1.54436E+12,0,34,7.47E-06,41,60,46,125069,16769964,16749549,32527,29139,16666,8491,4816,down
1.54436E+12,0,55,1.21E-05,41,60,46,125069,16769964,16749549,32527,29139,16666,8491,4816,down
1.54436E+12,0,70,1.54E-05,41,60,46,125069,16769964,16749549,32527,29139,16666,8491,4816,down
1.54436E+12,0,57,1.25E-05,41,60,46,125069,16769964,16749549,32527,29139,16666,8491,4816,down
1.54436E+12,0,44,9.67E-06,41,60,46,125069,16769964,16749549,32527,29139,16666,8491,4816,down
1.54436E+12,0,52,1.14E-05,41,60,46,125069,16769964,16749549,32527,29139,16666,8491,4816,down
1.54436E+12,0,58,1.27E-05,41,60,46,125069,16769964,16749549,32527,29139,16666,8491,4816,down
1.54436E+12,0,51,1.12E-05,41,60,46,125069,16769964,16749549,32527,29139,16666,8491,4816,down
1.54436E+12,0,43,9.45E-06,41,60,46,125069,16769964,16749549,32527,29139,16666,8491,4816,down
1.54436E+12,0,49,1.08E-05,41,60,46,125069,16769964,16749549,32527,29139,16666,8491,4816,down
1.54436E+12,0,56,1.23E-05,41,60,46,125069,16769964,16749549,32527,29139,16666,8491,4816,down
1.54436E+12,0,82,1.80E-05,41,60,46,125069,16769964,16749549,32527,29139,16666,8491,4816,down
1.54436E+12,0,107,2.35E-05,41,60,46,125069,16769964,16749549,32527,29139,16666,8491,4816,down
1.54436E+12,0,117,2.57E-05,41,60,46,125069,16769964,16749549,32527,29139,16666,8491,4816,down
1.54436E+12,0,123,2.70E-05,41,60,46,125069,16769964,16749549,32527,29139,16666,8491,4816,down
1.54436E+12,0,-128,-2.81E-05,41,60,46,125069,16769964,16749549,32527,29139,16666,8491,4816,down
1.54436E+12,0,117,2.57E-05,41,60,46,125069,16769964,16749549,32527,29139,16666,8491,4816,down
1.54436E+12,0,98,2.15E-05,41,60,46,125069,16769964,16749549,32527,29139,16666,8491,4816,down
1.54436E+12,0,67,1.47E-05,41,60,46,125069,16769964,16749549,32527,29139,16666,8491,4816,down
1.54436E+12,0,27,5.93E-06,41,60,46,125069,16769964,16749549,32527,29139,16666,8491,4816,down
1.54436E+12,0,-273,-6.00E-05,41,60,46,125069,16769964,16749549,32527,29139,16666,8491,4816,down
1.54436E+12,0,-280,-6.15E-05,41,60,46,125069,16769964,16749549,32527,29139,16666,8491,4816,down
1.54436E+12,0,24,5.27E-06,41,60,46,125069,16769964,16749549,32527,29139,16666,8491,4816,down
1.54436E+12,0,81,1.78E-05,41,60,46,125069,16769964,16749549,32527,29139,16666,8491,4816,down
1.54436E+12,0,99,2.18E-05,41,60,46,125069,16769964,16749549,32527,29139,16666,8491,4816,down
1.54436E+12,0,105,2.31E-05,41,60,46,125069,16769964,16749549,32527,29139,16666,8491,4816,down
1.54436E+12,0,118,2.59E-05,41,60,46,125069,16769964,16749549,32527,29139,16666,8491,4816,down
1.54436E+12,0,121,2.66E-05,41,60,46,125069,16769964,16749549,32527,29139,16666,8491,4816,down
1.54436E+12,0,120,2.64E-05,41,60,46,125069,16769964,16749549,32527,29139,16666,8491,4816,down
1.54436E+12,0,-126,-2.77E-05,41,60,46,125069,16769964,16749549,32527,29139,16666,8491,4816,down
1.54436E+12,0,-111,-2.44E-05,41,60,46,125069,16769964,16749549,32527,29139,16666,8491,4816,down
1.54436E+12,0,-109,-2.40E-05,41,60,46,125069,16769964,16749549,32527,29139,16666,8491,4816,down
1.54436E+12,0,-125,-2.75E-05,41,60,46,125069,16769964,16749549,32527,29139,16666,8491,4816,down
1.54436E+12,0,93,2.04E-05,41,60,46,125069,16769964,16749549,32527,29139,16666,8491,4816,down
1.54436E+12,0,40,8.79E-06,41,60,46,125069,16769964,16749549,32527,29139,16666,8491,4816,down
1.54436E+12,0,3,6.59E-07,41,60,46,125069,16769964,16749549,32527,29139,16666,8491,4816,down
1.54436E+12,0,6,1.32E-06,41,60,46,125069,16769964,16749549,32527,29139,16666,8491,4816,down
1.54436E+12,0,32,7.03E-06,41,60,46,125069,16769964,16749549,32527,29139,16666,8491,4816,down
1.54436E+12,0,64,1.41E-05,41,60,46,125069,16769964,16749549,32527,29139,16666,8491,4816,down
1.54436E+12,0,88,1.93E-05,41,60,46,125069,16769964,16749549,32527,29139,16666,8491,4816,down
1.54436E+12,0,97,2.13E-05,41,60,46,125069,16769964,16749549,32527,29139,16666,8491,4816,down
1.54436E+12,0,93,2.04E-05,41,60,46,125069,16769964,16749549,32527,29139,16666,8491,4816,down
1.54436E+12,0,91,2.00E-05,41,60,46,125069,16769964,16749549,32527,29139,16666,8491,4816,down
1.54436E+12,0,91,2.00E-05,41,60,46,125069,16769964,16749549,32527,29139,16666,8491,4816,down
1.54436E+12,0,100,2.20E-05,41,60,46,125069,16769964,16749549,32527,29139,16666,8491,4816,down
1.54436E+12,0,115,2.53E-05,41,60,46,125069,16769964,16749549,32527,29139,16666,8491,4816,down
1.54436E+12,0,120,2.64E-05,41,60,46,125069,16769964,16749549,32527,29139,16666,8491,4816,down
1.54436E+12,0,-117,-2.57E-05,41,60,46,125069,16769964,16749549,32527,29139,16666,8491,4816,down
1.54436E+12,0,-96,-2.11E-05,41,60,46,125069,16769964,16749549,32527,29139,16666,8491,4816,down
1.54436E+12,0,-95,-2.09E-05,41,60,46,125069,16769964,16749549,32527,29139,16666,8491,4816,down
1.54436E+12,0,-118,-2.59E-05,41,60,46,125069,16769964,16749549,32527,29139,16666,8491,4816,down
1.54436E+12,0,107,2.35E-05,41,60,46,125069,16769964,16749549,32527,29139,16666,8491,4816,down
1.54436E+12,0,105,2.31E-05,41,60,46,125069,16769964,16749549,32527,29139,16666,8491,4816,down
1.54436E+12,0,106,2.33E-05,41,60,46,125069,16769964,16749549,32527,29139,16666,8491,4816,down
1.54436E+12,0,104,2.29E-05,41,60,46,125069,16769964,16749549,32527,29139,16666,8491,4816,down
1.54436E+12,0,109,2.40E-05,41,60,46,125069,16769964,16749549,32527,29139,16666,8491,4816,down
1.54436E+12,0,117,2.57E-05,41,60,46,125069,16769964,16749549,32527,29139,16666,8491,4816,down
1.54436E+12,0,115,2.53E-05,41,60,46,125069,16769964,16749549,32527,29139,16666,8491,4816,down
1.54436E+12,0,97,2.13E-05,41,60,46,125069,16769964,16749549,32527,29139,16666,8491,4816,down
1.54436E+12,0,68,1.49E-05,41,60,46,125069,16769964,16749549,32527,29139,16666,8491,4816,down
1.54436E+12,0,70,1.54E-05,41,60,46,125069,16769964,16749549,32527,29139,16666,8491,4816,down
1.54436E+12,0,105,2.31E-05,41,60,46,125069,16769964,16749549,32527,29139,16666,8491,4816,down
1.54436E+12,0,-110,-2.42E-05,41,60,46,125069,16769964,16749549,32527,29139,16666,8491,4816,down
1.54436E+12,0,-93,-2.04E-05,41,60,46,125069,16769964,16749549,32527,29139,16666,8491,4816,down
1.54436E+12,0,-73,-1.60E-05,41,60,46,125069,16769964,16749549,32527,29139,16666,8491,4816,down
1.54436E+12,0,-57,-1.25E-05,41,60,46,125069,16769964,16749549,32527,29139,16666,8491,4816,down
1.54436E+12,0,-60,-1.32E-05,41,60,46,125069,16769964,16749549,32527,29139,16666,8491,4816,down
1.54436E+12,0,-79,-1.74E-05,41,60,46,125069,16769964,16749549,32527,29139,16666,8491,4816,down
1.54436E+12,0,-83,-1.82E-05,41,60,46,125069,16769964,16749549,32527,29139,16666,8491,4816,down
1.54436E+12,0,-101,-2.22E-05,41,60,46,125069,16769964,16749549,32527,29139,16666,8491,4816,down
1.54436E+12,0,123,2.70E-05,41,60,46,125069,16769964,16749549,32527,29139,16666,8491,4816,down
1.54436E+12,0,113,2.48E-05,41,60,46,125069,16769964,16749549,32527,29139,16666,8491,4816,down
1.54436E+12,0,-118,-2.59E-05,41,60,46,125069,16769964,16749549,32527,29139,16666,8491,4816,down
1.54436E+12,0,-46,-1.01E-05,41,60,46,125069,16769964,16749549,32527,29139,16666,8491,4816,down
1.54436E+12,0,297,6.53E-05,41,60,46,125069,16769964,16749549,32527,29139,16666,8491,4816,down
1.54436E+12,0,360,7.91E-05,41,60,46,125069,16769964,16749549,32527,29139,16666,8491,4816,down
1.54436E+12,0,375,8.24E-05,41,60,46,125069,16769964,16749549,32527,29139,16666,8491,4816,down
1.54436E+12,0,128,2.81E-05,41,60,46,125069,16769964,16749549,32527,29139,16666,8491,4816,down
1.54436E+12,0,363,7.98E-05,41,60,46,125069,16769964,16749549,32527,29139,16666,8491,4816,down
1.54436E+12,0,343,7.54E-05,41,60,46,125069,16769964,16749549,32527,29139,16666,8491,4816,down
1.54436E+12,0,368,8.09E-05,41,60,46,125069,16769964,16749549,32527,29139,16666,8491,4816,down
1.54436E+12,0,212,4.66E-05,41,60,46,125069,16769964,16749549,32527,29139,16666,8491,4816,down
1.54436E+12,0,598,1.31E-04,41,60,46,125069,16769964,16749549,32527,29139,16666,8491,4816,down
1.54436E+12,0,416,9.14E-05,41,60,46,125069,16769964,16749549,32527,29139,16666,8491,4816,down
1.54436E+12,0,411,9.03E-05,41,60,46,125069,16769964,16749549,32527,29139,16666,8491,4816,down
1.54436E+12,0,402,8.83E-05,41,60,46,125069,16769964,16749549,32527,29139,16666,8491,4816,down
1.54436E+12,0,428,9.40E-05,41,60,46,125069,16769964,16749549,32527,29139,16666,8491,4816,down
1.54436E+12,0,480,1.05E-04,41,60,46,125069,16769964,16749549,32527,29139,16666,8491,4816,down
1.54436E+12,0,775,1.70E-04,41,60,46,125069,16769964,16749549,32527,29139,16666,8491,4816,down
1.54436E+12,0,781,1.72E-04,41,60,46,125069,16769964,16749549,32527,29139,16666,8491,4816,down
1.54436E+12,0,770,1.69E-04,41,60,46,125069,16769964,16749549,32527,29139,16666,8491,4816,down
1.54436E+12,0,487,1.07E-04,41,60,46,125069,16769964,16749549,32527,29139,16666,8491,4816,down
1.54436E+12,0,441,9.69E-05,41,60,46,125069,16769964,16749549,32527,29139,16666,8491,4816,down
1.54436E+12,0,392,8.61E-05,41,60,46,125069,16769964,16749549,32527,29139,16666,8491,4816,down
1.54436E+12,0,593,1.30E-04,41,60,46,125069,16769964,16749549,32527,29139,16666,8491,4816,down
1.54436E+12,0,513,1.13E-04,41,60,46,125069,16769964,16749549,32527,29139,16666,8491,4816,down
1.54436E+12,0,200,4.39E-05,41,60,46,125069,16769964,16749549,32527,29139,16666,8491,4816,down
1.54436E+12,0,218,4.79E-05,41,60,46,125069,16769964,16749549,32527,29139,16666,8491,4816,down
1.54436E+12,0,528,1.16E-04,41,60,46,125069,16769964,16749549,32527,29139,16666,8491,4816,down
1.54436E+12,0,563,1.24E-04,41,60,46,125069,16769964,16749549,32527,29139,16666,8491,4816,down
1.54436E+12,0,556,1.22E-04,41,60,46,125069,16769964,16749549,32527,29139,16666,8491,4816,down
1.54436E+12,0,521,1.14E-04,41,60,46,125069,16769964,16749549,32527,29139,16666,8491,4816,down
1.54436E+12,0,225,4.94E-05,41,60,46,125069,16769964,16749549,32527,29139,16666,8491,4816,down
1.54436E+12,0,169,3.71E-05,41,60,46,125069,16769964,16749549,32527,29139,16666,8491,4816,down
1.54436E+12,0,361,7.93E-05,41,60,46,125069,16769964,16749549,32527,29139,16666,8491,4816,down
1.54436E+12,0,329,7.23E-05,41,60,46,125069,16769964,16749549,32527,29139,16666,8491,4816,down
1.54436E+12,0,285,6.26E-05,41,60,46,125069,16769964,16749549,32527,29139,16666,8491,4816,down
1.54436E+12,0,-7,-1.54E-06,41,60,46,125069,16769964,16749549,32527,29139,16666,8491,4816,down
1.54436E+12,0,-12,-2.64E-06,41,60,46,125069,16769964,16749549,32527,29139,16666,8491,4816,down
1.54436E+12,0,-23,-5.05E-06,41,60,46,125069,16769964,16749549,32527,29139,16666,8491,4816,down
1.54436E+12,0,-60,-1.32E-05,41,60,46,125069,16769964,16749549,32527,29139,16666,8491,4816,down
1.54436E+12,0,-111,-2.44E-05,41,60,46,125069,16769964,16749549,32527,29139,16666,8491,4816,down
1.54436E+12,0,98,2.15E-05,41,60,46,125069,16769964,16749549,32527,29139,16666,8491,4816,down
1.54436E+12,0,38,8.35E-06,41,60,46,125069,16769964,16749549,32527,29139,16666,8491,4816,down
1.54436E+12,0,-275,-6.04E-05,41,60,46,125069,16769964,16749549,32527,29139,16666,8491,4816,down
1.54436E+12,0,-326,-7.16E-05,41,60,46,125069,16769964,16749549,32527,29139,16666,8491,4816,down
1.54436E+12,0,-355,-7.80E-05,41,60,46,125069,16769964,16749549,32527,29139,16666,8491,4816,down
1.54436E+12,0,-369,-8.11E-05,41,60,46,125069,16769964,16749549,32527,29139,16666,8491,4816,down
1.54436E+12,0,-151,-3.32E-05,41,60,46,125069,16769964,16749549,32527,29139,16666,8491,4816,down
1.54436E+12,0,-205,-4.50E-05,41,60,46,125069,16769964,16749549,32527,29139,16666,8491,4816,down
1.54436E+12,0,-250,-5.49E-05,41,60,46,125069,16769964,16749549,32527,29139,16666,8491,4816,down
1.54436E+12,0,-546,-1.20E-04,41,60,46,125069,16769964,16749549,32527,29139,16666,8491,4816,down
1.54436E+12,0,-556,-1.22E-04,41,60,46,125069,16769964,16749549,32527,29139,16666,8491,4816,down
1.54436E+12,0,-537,-1.18E-04,41,60,46,125069,16769964,16749549,32527,29139,16666,8491,4816,down
1.54436E+12,0,-523,-1.15E-04,41,60,46,125069,16769964,16749549,32527,29139,16666,8491,4816,down
1.54436E+12,0,-536,-1.18E-04,41,60,46,125069,16769964,16749549,32527,29139,16666,8491,4816,down
1.54436E+12,0,-569,-1.25E-04,41,60,46,125069,16769964,16749549,32527,29139,16666,8491,4816,down
1.54436E+12,0,-602,-1.32E-04,41,60,46,125069,16769964,16749549,32527,29139,16666,8491,4816,down
1.54436E+12,0,-630,-1.38E-04,41,60,46,125069,16769964,16749549,32527,29139,16666,8491,4816,down
1.54436E+12,0,-418,-9.18E-05,41,60,46,125069,16769964,16749549,32527,29139,16666,8491,4816,down
1.54436E+12,0,-450,-9.89E-05,41,60,46,125069,16769964,16749549,32527,29139,16666,8491,4816,down
1.54436E+12,0,-453,-9.95E-05,41,60,46,125069,16769964,16749549,32527,29139,16666,8491,4816,down
1.54436E+12,0,-472,-1.04E-04,41,60,46,125069,16769964,16749549,32527,29139,16666,8491,4816,down
1.54436E+12,0,-508,-1.12E-04,41,60,46,125069,16769964,16749549,32527,29139,16666,8491,4816,down
1.54436E+12,0,-789,-1.73E-04,41,60,46,125069,16769964,16749549,32527,29139,16666,8491,4816,down
1.54436E+12,0,-782,-1.72E-04,41,60,46,125069,16769964,16749549,32527,29139,16666,8491,4816,down
1.54436E+12,0,-786,-1.73E-04,41,60,46,125069,16769964,16749549,32527,29139,16666,8491,4816,down
1.54436E+12,0,-788,-1.73E-04,41,60,46,125069,16769964,16749549,32527,29139,16666,8491,4816,down
1.54436E+12,0,-773,-1.70E-04,41,60,46,125069,16769964,16749549,32527,29139,16666,8491,4816,down
1.54436E+12,0,-489,-1.07E-04,41,60,46,125069,16769964,16749549,32527,29139,16666,8491,4816,down
1.54436E+12,0,-466,-1.02E-04,41,60,46,125069,16769964,16749549,32527,29139,16666,8491,4816,down
1.54436E+12,0,-449,-9.87E-05,41,60,46,125069,16769964,16749549,32527,29139,16666,8491,4816,down
1.54436E+12,0,-455,-1.00E-04,41,60,46,125069,16769964,16749549,32527,29139,16666,8491,4816,down
1.54436E+12,0,-457,-1.00E-04,41,60,46,125069,16769964,16749549,32527,29139,16666,8491,4816,down
1.54436E+12,0,-442,-9.71E-05,41,60,46,125069,16769964,16749549,32527,29139,16666,8491,4816,down
1.54436E+12,0,-444,-9.76E-05,41,60,46,125069,16769964,16749549,32527,29139,16666,8491,4816,down
1.54436E+12,0,-440,-9.67E-05,41,60,46,125069,16769964,16749549,32527,29139,16666,8491,4816,down
1.54436E+12,0,-436,-9.58E-05,41,60,46,125069,16769964,16749549,32527,29139,16666,8491,4816,down
1.54436E+12,0,-451,-9.91E-05,41,60,46,125069,16769964,16749549,32527,29139,16666,8491,4816,down
1.54436E+12,0,-426,-9.36E-05,41,60,46,125069,16769964,16749549,32527,29139,16666,8491,4816,down
1.54436E+12,0,-631,-1.39E-04,41,60,46,125069,16769964,16749549,32527,29139,16666,8491,4816,down
1.54436E+12,0,-589,-1.29E-04,41,60,46,125069,16769964,16749549,32527,29139,16666,8491,4816,down
1.54436E+12,0,-561,-1.23E-04,41,60,46,125069,16769964,16749549,32527,29139,16666,8491,4816,down
1.54436E+12,0,-535,-1.18E-04,41,60,46,125069,16769964,16749549,32527,29139,16666,8491,4816,down
1.54436E+12,0,-514,-1.13E-04,41,60,46,125069,16769964,16749549,32527,29139,16666,8491,4816,down
1.54436E+12,0,-245,-5.38E-05,41,60,46,125069,16769964,16749549,32527,29139,16666,8491,4816,down
1.54436E+12,0,-230,-5.05E-05,41,60,46,125069,16769964,16749549,32527,29139,16666,8491,4816,down
1.54436E+12,0,-214,-4.70E-05,41,60,46,125069,16769964,16749549,32527,29139,16666,8491,4816,down
1.54436E+12,0,-213,-4.68E-05,41,60,46,125069,16769964,16749549,32527,29139,16666,8491,4816,down
1.54436E+12,0,-515,-1.13E-04,41,60,46,125069,16769964,16749549,32527,29139,16666,8491,4816,down
1.54436E+12,0,-567,-1.25E-04,41,60,46,125069,16769964,16749549,32527,29139,16666,8491,4816,down
1.54436E+12,0,-571,-1.25E-04,41,60,46,125069,16769964,16749549,32527,29139,16666,8491,4816,down
1.54436E+12,0,-538,-1.18E-04,41,60,46,125069,16769964,16749549,32527,29139,16666,8491,4816,down
1.54436E+12,0,-242,-5.32E-05,41,60,46,125069,16769964,16749549,32527,29139,16666,8491,4816,down
1.54436E+12,0,-233,-5.12E-05,41,60,46,125069,16769964,16749549,32527,29139,16666,8491,4816,down
1.54436E+12,0,-247,-5.43E-05,41,60,46,125069,16769964,16749549,32527,29139,16666,8491,4816,down
1.54436E+12,0,-515,-1.13E-04,41,60,46,125069,16769964,16749549,32527,29139,16666,8491,4816,down
1.54436E+12,0,-241,-5.30E-05,41,60,46,125069,16769964,16749549,32527,29139,16666,8491,4816,down
1.54436E+12,0,-215,-4.72E-05,41,60,46,125069,16769964,16749549,32527,29139,16666,8491,4816,down
1.54436E+12,0,-217,-4.77E-05,41,60,46,125069,16769964,16749549,32527,29139,16666,8491,4816,down
1.54436E+12,0,-221,-4.86E-05,41,60,46,125069,16769964,16749549,32527,29139,16666,8491,4816,down
1.54436E+12,0,-206,-4.53E-05,41,60,46,125069,16769964,16749549,32527,29139,16666,8491,4816,down
1.54436E+12,0,-184,-4.04E-05,41,60,46,125069,16769964,16749549,32527,29139,16666,8491,4816,down
1.54436E+12,0,-163,-3.58E-05,41,60,46,125069,16769964,16749549,32527,29139,16666,8491,4816,down
1.54436E+12,0,-142,-3.12E-05,41,60,46,125069,16769964,16749549,32527,29139,16666,8491,4816,down
1.54436E+12,0,-129,-2.83E-05,41,60,46,125069,16769964,16749549,32527,29139,16666,8491,4816,down
1.54436E+12,0,-130,-2.86E-05,41,60,46,125069,16769964,16749549,32527,29139,16666,8491,4816,down
1.54436E+12,0,-378,-8.31E-05,41,60,46,125069,16769964,16749549,32527,29139,16666,8491,4816,down
1.54436E+12,0,-376,-8.26E-05,41,60,46,125069,16769964,16749549,32527,29139,16666,8491,4816,down
1.54436E+12,0,-376,-8.26E-05,41,60,46,125069,16769964,16749549,32527,29139,16666,8491,4816,down
1.54436E+12,0,-346,-7.60E-05,41,60,46,125069,16769964,16749549,32527,29139,16666,8491,4816,down
1.54436E+12,0,-324,-7.12E-05,41,60,46,125069,16769964,16749549,32527,29139,16666,8491,4816,down
1.54436E+12,0,-337,-7.40E-05,41,60,46,125069,16769964,16749549,32527,29139,16666,8491,4816,down
1.54436E+12,0,-364,-8.00E-05,41,60,46,125069,16769964,16749549,32527,29139,16666,8491,4816,down
1.54436E+12,0,-378,-8.31E-05,41,60,46,125069,16769964,16749549,32527,29139,16666,8491,4816,down
1.54436E+12,0,-139,-3.05E-05,41,60,46,125069,16769964,16749549,32527,29139,16666,8491,4816,down
1.54436E+12,0,-153,-3.36E-05,41,60,46,125069,16769964,16749549,32527,29139,16666,8491,4816,down
1.54436E+12,0,-152,-3.34E-05,41,60,46,125069,16769964,16749549,32527,29139,16666,8491,4816,down
1.54436E+12,0,-146,-3.21E-05,41,60,46,125069,16769964,16749549,32527,29139,16666,8491,4816,down
1.54436E+12,0,-129,-2.83E-05,41,60,46,125069,16769964,16749549,32527,29139,16666,8491,4816,down
1.54436E+12,0,-327,-7.19E-05,41,60,46,125069,16769964,16749549,32527,29139,16666,8491,4816,down
1.54436E+12,0,-283,-6.22E-05,41,60,46,125069,16769964,16749549,32527,29139,16666,8491,4816,down
1.54436E+12,0,-289,-6.35E-05,41,60,46,125069,16769964,16749549,32527,29139,16666,8491,4816,down
1.54436E+12,0,-281,-6.17E-05,41,60,46,125069,16769964,16749549,32527,29139,16666,8491,4816,down
1.54436E+12,0,4,8.79E-07,41,60,46,125069,16769964,16749549,32527,29139,16666,8491,4816,down
1.54436E+12,0,32,7.03E-06,41,60,46,125069,16769964,16749549,32527,29139,16666,8491,4816,down
1.54436E+12,0,37,8.13E-06,41,60,98,125069,16769964,16749549,32527,29139,16666,8491,4816,down
1.54436E+12,0,34,7.47E-06,41,60,98,125069,16769964,16749549,32527,29139,16666,8491,4816,down
1.54436E+12,0,45,9.89E-06,41,60,98,125069,16769964,16749549,32527,29139,16666,8491,4816,down
1.54436E+12,0,54,1.19E-05,41,60,98,125069,16769964,16749549,32527,29139,16666,8491,4816,down
1.54436E+12,0,53,1.16E-05,41,60,98,125069,16769964,16749549,32527,29139,16666,8491,4816,down
1.54436E+12,0,24,5.27E-06,41,60,98,125069,16769964,16749549,32527,29139,16666,8491,4816,down
1.54436E+12,0,-266,-5.84E-05,41,60,98,125069,16769964,16749549,32527,29139,16666,8491,4816,down
1.54436E+12,0,-285,-6.26E-05,41,60,98,125069,16769964,16749549,32527,29139,16666,8491,4816,down
1.54436E+12,0,-280,-6.15E-05,41,60,98,125069,16769964,16749549,32527,29139,16666,8491,4816,down
1.54436E+12,0,-266,-5.84E-05,41,60,98,125069,16769964,16749549,32527,29139,16666,8491,4816,down
1.54436E+12,0,4,8.79E-07,41,60,98,125069,16769964,16749549,32527,29139,16666,8491,4816,down
1.54436E+12,0,38,8.35E-06,41,60,98,125069,16769964,16749549,32527,29139,16666,8491,4816,down
1.54436E+12,0,74,1.63E-05,41,60,98,125069,16769964,16749549,32527,29139,16666,8491,4816,down
1.54436E+12,0,68,1.49E-05,41,60,98,125069,16769964,16749549,32527,29139,16666,8491,4816,down
1.54436E+12,0,38,8.35E-06,41,60,98,125069,16769964,16749549,32527,29139,16666,8491,4816,down
1.54436E+12,0,34,7.47E-06,41,60,98,125069,16769964,16749549,32527,29139,16666,8491,4816,down
1.54436E+12,0,50,1.10E-05,41,60,98,125069,16769964,16749549,32527,29139,16666,8491,4816,down
1.54436E+12,0,60,1.32E-05,41,60,98,125069,16769964,16749549,32527,29139,16666,8491,4816,down
1.54436E+12,0,54,1.19E-05,41,60,98,125069,16769964,16749549,32527,29139,16666,8491,4816,down
1.54436E+12,0,29,6.37E-06,41,60,98,125069,16769964,16749549,32527,29139,16666,8491,4816,down
1.54436E+12,0,7,1.54E-06,41,60,98,125069,16769964,16749549,32527,29139,16666,8491,4816,down
1.54436E+12,0,10,2.20E-06,41,60,98,125069,16769964,16749549,32527,29139,16666,8491,4816,down
1.54436E+12,0,54,1.19E-05,41,60,98,125069,16769964,16749549,32527,29139,16666,8491,4816,down
1.54436E+12,0,108,2.37E-05,41,60,98,125069,16769964,16749549,32527,29139,16666,8491,4816,down
1.54436E+12,0,-96,-2.11E-05,41,60,98,125069,16769964,16749549,32527,29139,16666,8491,4816,down
1.54436E+12,0,-77,-1.69E-05,41,60,98,125069,16769964,16749549,32527,29139,16666,8491,4816,down
1.54436E+12,0,-112,-2.46E-05,41,60,98,125069,16769964,16749549,32527,29139,16666,8491,4816,down
1.54436E+12,0,104,2.29E-05,41,60,98,125069,16769964,16749549,32527,29139,16666,8491,4816,down
1.54436E+12,0,118,2.59E-05,41,60,98,125069,16769964,16749549,32527,29139,16666,8491,4816,down
1.54436E+12,0,-91,-2.00E-05,41,60,98,125069,16769964,16749549,32527,29139,16666,8491,4816,down
1.54436E+12,0,-39,-8.57E-06,41,60,98,125069,16769964,16749549,32527,29139,16666,8491,4816,down
1.54436E+12,0,277,6.09E-05,41,60,98,125069,16769964,16749549,32527,29139,16666,8491,4816,down
1.54436E+12,0,301,6.61E-05,41,60,98,125069,16769964,16749549,32527,29139,16666,8491,4816,down
1.54436E+12,0,266,5.84E-05,41,60,98,125069,16769964,16749549,32527,29139,16666,8491,4816,down
1.54436E+12,0,-30,-6.59E-06,41,60,98,125069,16769964,16749549,32527,29139,16666,8491,4816,down
1.54436E+12,0,-62,-1.36E-05,41,60,98,125069,16769964,16749549,32527,29139,16666,8491,4816,down
1.54436E+12,0,-89,-1.96E-05,41,60,98,125069,16769964,16749549,32527,29139,16666,8491,4816,down
1.54436E+12,0,-80,-1.76E-05,41,60,98,125069,16769964,16749549,32527,29139,16666,8491,4816,down
1.54436E+12,0,-44,-9.67E-06,41,60,98,125069,16769964,16749549,32527,29139,16666,8491,4816,down
1.54436E+12,0,-7,-1.54E-06,41,60,98,125069,16769964,16749549,32527,29139,16666,8491,4816,down
1.54436E+12,0,278,6.11E-05,41,60,98,125069,16769964,16749549,32527,29139,16666,8491,4816,down
1.54436E+12,0,276,6.06E-05,41,60,98,125069,16769964,16749549,32527,29139,16666,8491,4816,down
1.54436E+12,0,-9,-1.98E-06,41,60,98,125069,16769964,16749549,32527,29139,16666,8491,4816,down
1.54436E+12,0,-53,-1.16E-05,41,60,98,125069,16769964,16749549,32527,29139,16666,8491,4816,down
1.54436E+12,0,-80,-1.76E-05,41,60,98,125069,16769964,16749549,32527,29139,16666,8491,4816,down
1.54436E+12,0,-63,-1.38E-05,41,60,98,125069,16769964,16749549,32527,29139,16666,8491,4816,down
1.54436E+12,0,-32,-7.03E-06,41,60,98,125069,16769964,16749549,32527,29139,16666,8491,4816,down
1.54436E+12,0,-55,-1.21E-05,41,60,98,125069,16769964,16749549,32527,29139,16666,8491,4816,down
1.54436E+12,0,-122,-2.68E-05,41,60,98,125069,16769964,16749549,32527,29139,16666,8491,4816,down
1.54436E+12,0,97,2.13E-05,41,60,98,125069,16769964,16749549,32527,29139,16666,8491,4816,down
1.54436E+12,0,98,2.15E-05,41,60,98,125069,16769964,16749549,32527,29139,16666,8491,4816,down
1.54436E+12,0,102,2.24E-05,41,60,98,125069,16769964,16749549,32527,29139,16666,8491,4816,down
1.54436E+12,0,86,1.89E-05,41,60,98,125069,16769964,16749549,32527,29139,16666,8491,4816,down
1.54436E+12,0,60,1.32E-05,41,60,98,125069,16769964,16749549,32527,29139,16666,8491,4816,down
1.54436E+12,0,54,1.19E-05,41,60,98,125069,16769964,16749549,32527,29139,16666,8491,4816,down
1.54436E+12,0,59,1.30E-05,41,60,98,125069,16769964,16749549,32527,29139,16666,8491,4816,down
1.54436E+12,0,68,1.49E-05,41,60,98,125069,16769964,16749549,32527,29139,16666,8491,4816,down
1.54436E+12,0,86,1.89E-05,41,60,98,125069,16769964,16749549,32527,29139,16666,8491,4816,down
1.54436E+12,0,100,2.20E-05,41,60,98,125069,16769964,16749549,32527,29139,16666,8491,4816,down
1.54436E+12,0,93,2.04E-05,41,60,98,125069,16769964,16749549,32527,29139,16666,8491,4816,down
1.54436E+12,0,66,1.45E-05,41,60,98,125069,16769964,16749549,32527,29139,16666,8491,4816,down
1.54436E+12,0,26,5.71E-06,41,60,98,125069,16769964,16749549,32527,29139,16666,8491,4816,down
1.54436E+12,0,6,1.32E-06,41,60,98,125069,16769964,16749549,32527,29139,16666,8491,4816,down
1.54436E+12,0,9,1.98E-06,41,60,98,125069,16769964,16749549,32527,29139,16666,8491,4816,down
1.54436E+12,0,51,1.12E-05,41,60,98,125069,16769964,16749549,32527,29139,16666,8491,4816,down
1.54436E+12,0,107,2.35E-05,41,60,98,125069,16769964,16749549,32527,29139,16666,8491,4816,down
1.54436E+12,0,109,2.40E-05,41,60,98,125069,16769964,16749549,32527,29139,16666,8491,4816,down
1.54436E+12,0,72,1.58E-05,41,60,98,125069,16769964,16749549,32527,29139,16666,8491,4816,down
1.54436E+12,0,42,9.23E-06,41,60,98,125069,16769964,16749549,32527,29139,16666,8491,4816,down
1.54436E+12,0,49,1.08E-05,41,60,98,125069,16769964,16749549,32527,29139,16666,8491,4816,down
1.54436E+12,0,76,1.67E-05,41,60,98,125069,16769964,16749549,32527,29139,16666,8491,4816,down
1.54436E+12,0,91,2.00E-05,41,60,98,125069,16769964,16749549,32527,29139,16666,8491,4816,down
1.54436E+12,0,85,1.87E-05,41,60,98,125069,16769964,16749549,32527,29139,16666,8491,4816,down
1.54436E+12,0,74,1.63E-05,41,60,98,125069,16769964,16749549,32527,29139,16666,8491,4816,down
1.54436E+12,0,61,1.34E-05,41,60,98,125069,16769964,16749549,32527,29139,16666,8491,4816,down
1.54436E+12,0,60,1.32E-05,41,60,98,125069,16769964,16749549,32527,29139,16666,8491,4816,down
1.54436E+12,0,83,1.82E-05,41,60,98,125069,16769964,16749549,32527,29139,16666,8491,4816,down
1.54436E+12,0,119,2.61E-05,41,60,98,125069,16769964,16749549,32527,29139,16666,8491,4816,down
1.54436E+12,0,-120,-2.64E-05,41,60,98,125069,16769964,16749549,32527,29139,16666,8491,4816,down
1.54436E+12,0,121,2.66E-05,41,60,98,125069,16769964,16749549,32527,29139,16666,8491,4816,down
1.54436E+12,0,112,2.46E-05,41,60,98,125069,16769964,16749549,32527,29139,16666,8491,4816,down
1.54436E+12,0,114,2.50E-05,41,60,98,125069,16769964,16749549,32527,29139,16666,8491,4816,down
1.54436E+12,0,108,2.37E-05,41,60,98,125069,16769964,16749549,32527,29139,16666,8491,4816,down
1.54436E+12,0,98,2.15E-05,41,60,98,125069,16769964,16749549,32527,29139,16666,8491,4816,down
1.54436E+12,0,82,1.80E-05,41,60,98,125069,16769964,16749549,32527,29139,16666,8491,4816,down
1.54436E+12,0,74,1.63E-05,41,60,98,125069,16769964,16749549,32527,29139,16666,8491,4816,down
1.54436E+12,0,73,1.60E-05,41,60,98,125069,16769964,16749549,32527,29139,16666,8491,4816,down
1.54436E+12,0,59,1.30E-05,41,60,98,125069,16769964,16749549,32527,29139,16666,8491,4816,down
1.54436E+12,0,35,7.69E-06,41,60,98,125069,16769964,16749549,32527,29139,16666,8491,4816,down
1.54436E+12,0,10,2.20E-06,41,60,98,125069,16769964,16749549,32527,29139,16666,8491,4816,down
1.54436E+12,0,0,0,41,60,98,125069,16769964,16749549,32527,29139,16666,8491,4816,down
1.54436E+12,0,38,8.35E-06,41,60,98,125069,16769964,16749549,32527,29139,16666,8491,4816,down
1.54436E+12,0,-128,-2.81E-05,41,60,98,125069,16769964,16749549,32527,29139,16666,8491,4816,down
1.54436E+12,0,-67,-1.47E-05,41,60,98,125069,16769964,16749549,32527,29139,16666,8491,4816,down
1.54436E+12,0,-58,-1.27E-05,41,60,98,125069,16769964,16749549,32527,29139,16666,8491,4816,down
1.54436E+12,0,-104,-2.29E-05,41,60,98,125069,16769964,16749549,32527,29139,16666,8491,4816,down
1.54436E+12,0,101,2.22E-05,41,60,98,125069,16769964,16749549,32527,29139,16666,8491,4816,down
1.54436E+12,0,86,1.89E-05,41,60,98,125069,16769964,16749549,32527,29139,16666,8491,4816,down
1.54436E+12,0,102,2.24E-05,41,60,98,125069,16769964,16749549,32527,29139,16666,8491,4816,down
1.54436E+12,0,122,2.68E-05,41,60,98,125069,16769964,16749549,32527,29139,16666,8491,4816,down
1.54436E+12,0,113,2.48E-05,41,60,98,125069,16769964,16749549,32527,29139,16666,8491,4816,down
1.54436E+12,0,72,1.58E-05,41,60,98,125069,16769964,16749549,32527,29139,16666,8491,4816,down
1.54436E+12,0,12,2.64E-06,41,60,98,125069,16769964,16749549,32527,29139,16666,8491,4816,down
1.54436E+12,0,-293,-6.44E-05,41,60,98,125069,16769964,16749549,32527,29139,16666,8491,4816,down
1.54436E+12,0,-289,-6.35E-05,41,60,98,125069,16769964,16749549,32527,29139,16666,8491,4816,down
1.54436E+12,0,-264,-5.80E-05,41,60,98,125069,16769964,16749549,32527,29139,16666,8491,4816,down
1.54436E+12,0,-261,-5.73E-05,41,60,98,125069,16769964,16749549,32527,29139,16666,8491,4816,down
1.54436E+12,0,0,0,41,60,98,125069,16769964,16749549,32527,29139,16666,8491,4816,down
1.54436E+12,0,34,7.47E-06,41,60,98,125069,16769964,16749549,32527,29139,16666,8491,4816,down
1.54436E+12,0,70,1.54E-05,41,60,98,125069,16769964,16749549,32527,29139,16666,8491,4816,down
1.54436E+12,0,80,1.76E-05,41,60,98,125069,16769964,16749549,32527,29139,16666,8491,4816,down
1.54436E+12,0,69,1.52E-05,41,60,98,125069,16769964,16749549,32527,29139,16666,8491,4816,down
1.54436E+12,0,60,1.32E-05,41,60,98,125069,16769964,16749549,32527,29139,16666,8491,4816,down
1.54436E+12,0,80,1.76E-05,41,60,98,125069,16769964,16749549,32527,29139,16666,8491,4816,down
1.54436E+12,0,92,2.02E-05,41,60,98,125069,16769964,16749549,32527,29139,16666,8491,4816,down
1.54436E+12,0,48,1.05E-05,41,60,98,125069,16769964,16749549,32527,29139,16666,8491,4816,down
1.54436E+12,0,-285,-6.26E-05,41,60,98,125069,16769964,16749549,32527,29139,16666,8491,4816,down
1.54436E+12,0,-325,-7.14E-05,41,60,98,125069,16769964,16749549,32527,29139,16666,8491,4816,down
1.54436E+12,0,-282,-6.20E-05,41,60,98,125069,16769964,16749549,32527,29139,16666,8491,4816,down
1.54436E+12,0,44,9.67E-06,41,60,98,125069,16769964,16749549,32527,29139,16666,8491,4816,down
1.54436E+12,0,71,1.56E-05,41,60,98,125069,16769964,16749549,32527,29139,16666,8491,4816,down
1.54436E+12,0,38,8.35E-06,41,60,98,125069,16769964,16749549,32527,29139,16666,8491,4816,down
1.54436E+12,0,11,2.42E-06,41,60,98,125069,16769964,16749549,32527,29139,16666,8491,4816,down
1.54436E+12,0,33,7.25E-06,41,60,98,125069,16769964,16749549,32527,29139,16666,8491,4816,down
1.54436E+12,0,65,1.43E-05,41,60,98,125069,16769964,16749549,32527,29139,16666,8491,4816,down
1.54436E+12,0,51,1.12E-05,41,60,98,125069,16769964,16749549,32527,29139,16666,8491,4816,down
1.54436E+12,0,5,1.10E-06,41,60,98,125069,16769964,16749549,32527,29139,16666,8491,4816,down
1.54436E+12,0,4,8.79E-07,41,60,98,125069,16769964,16749549,32527,29139,16666,8491,4816,down
1.54436E+12,0,48,1.05E-05,41,60,98,125069,16769964,16749549,32527,29139,16666,8491,4816,down
1.54436E+12,0,69,1.52E-05,41,60,98,125069,16769964,16749549,32527,29139,16666,8491,4816,down
1.54436E+12,0,43,9.45E-06,41,60,98,125069,16769964,16749549,32527,29139,16666,8491,4816,down
1.54436E+12,0,-277,-6.09E-05,41,60,98,125069,16769964,16749549,32527,29139,16666,8491,4816,down
1.54436E+12,0,-326,-7.16E-05,41,60,98,125069,16769964,16749549,32527,29139,16666,8491,4816,down
1.54436E+12,0,-302,-6.64E-05,41,60,98,125069,16769964,16749549,32527,29139,16666,8491,4816,down
1.54436E+12,0,10,2.20E-06,41,60,98,125069,16769964,16749549,32527,29139,16666,8491,4816,down
1.54436E+12,0,69,1.52E-05,41,60,98,125069,16769964,16749549,32527,29139,16666,8491,4816,down
1.54436E+12,0,108,2.37E-05,41,60,98,125069,16769964,16749549,32527,29139,16666,8491,4816,down
1.54436E+12,0,-126,-2.77E-05,41,60,98,125069,16769964,16749549,32527,29139,16666,8491,4816,down
1.54436E+12,0,114,2.50E-05,41,60,98,125069,16769964,16749549,32527,29139,16666,8491,4816,down
1.54436E+12,0,40,8.79E-06,41,60,98,125069,16769964,16749549,32527,29139,16666,8491,4816,down
1.54436E+12,0,-275,-6.04E-05,41,60,98,125069,16769964,16749549,32527,29139,16666,8491,4816,down
1.54436E+12,0,-291,-6.39E-05,41,60,98,125069,16769964,16749549,32527,29139,16666,8491,4816,down
1.54436E+12,0,-282,-6.20E-05,41,60,98,125069,16769964,16749549,32527,29139,16666,8491,4816,down
1.54436E+12,0,4,8.79E-07,41,60,98,125069,16769964,16749549,32527,29139,16666,8491,4816,down
1.54436E+12,0,50,1.10E-05,41,60,98,125069,16769964,16749549,32527,29139,16666,8491,4816,down
1.54436E+12,0,68,1.49E-05,41,60,98,125069,16769964,16749549,32527,29139,16666,8491,4816,down
1.54436E+12,0,56,1.23E-05,41,60,98,125069,16769964,16749549,32527,29139,16666,8491,4816,down
1.54436E+12,0,28,6.15E-06,41,60,98,125069,16769964,16749549,32527,29139,16666,8491,4816,down
1.54436E+12,0,0,0,41,60,98,125069,16769964,16749549,32527,29139,16666,8491,4816,down
1.54436E+12,0,-259,-5.69E-05,41,60,98,125069,16769964,16749549,32527,29139,16666,8491,4816,down
1.54436E+12,0,34,7.47E-06,41,60,98,125069,16769964,16749549,32527,29139,16666,8491,4816,down
1.54436E+12,0,73,1.60E-05,41,60,98,125069,16769964,16749549,32527,29139,16666,8491,4816,down
1.54436E+12,0,65,1.43E-05,41,60,98,125069,16769964,16749549,32527,29139,16666,8491,4816,down
1.54436E+12,0,24,5.27E-06,41,60,98,125069,16769964,16749549,32527,29139,16666,8491,4816,down
1.54436E+12,0,-274,-6.02E-05,41,60,98,125069,16769964,16749549,32527,29139,16666,8491,4816,down
1.54436E+12,0,-309,-6.79E-05,41,60,98,125069,16769964,16749549,32527,29139,16666,8491,4816,down
1.54436E+12,0,-317,-6.97E-05,41,60,98,125069,16769964,16749549,32527,29139,16666,8491,4816,down
1.54436E+12,0,-312,-6.86E-05,41,60,98,125069,16769964,16749549,32527,29139,16666,8491,4816,down
1.54436E+12,0,-323,-7.10E-05,41,60,98,125069,16769964,16749549,32527,29139,16666,8491,4816,down
1.54436E+12,0,-307,-6.75E-05,41,60,98,125069,16769964,16749549,32527,29139,16666,8491,4816,down
1.54436E+12,0,-264,-5.80E-05,41,60,98,125069,16769964,16749549,32527,29139,16666,8491,4816,down
1.54436E+12,0,29,6.37E-06,41,60,98,125069,16769964,16749549,32527,29139,16666,8491,4816,down
1.54436E+12,0,48,1.05E-05,41,60,98,125069,16769964,16749549,32527,29139,16666,8491,4816,down
1.54436E+12,0,39,8.57E-06,41,60,98,125069,16769964,16749549,32527,29139,16666,8491,4816,down
1.54436E+12,0,17,3.74E-06,41,60,98,125069,16769964,16749549,32527,29139,16666,8491,4816,down
1.54436E+12,0,5,1.10E-06,41,60,98,125069,16769964,16749549,32527,29139,16666,8491,4816,down
1.54436E+12,0,-261,-5.73E-05,41,60,98,125069,16769964,16749549,32527,29139,16666,8491,4816,down
1.54436E+12,0,-276,-6.06E-05,41,60,98,125069,16769964,16749549,32527,29139,16666,8491,4816,down
1.54436E+12,0,-285,-6.26E-05,41,60,98,125069,16769964,16749549,32527,29139,16666,8491,4816,down
1.54436E+12,0,-281,-6.17E-05,41,60,98,125069,16769964,16749549,32527,29139,16666,8491,4816,down
1.54436E+12,0,-258,-5.67E-05,41,60,98,125069,16769964,16749549,32527,29139,16666,8491,4816,down
1.54436E+12,0,-257,-5.65E-05,41,60,98,125069,16769964,16749549,32527,29139,16666,8491,4816,down
1.54436E+12,0,-274,-6.02E-05,41,60,98,125069,16769964,16749549,32527,29139,16666,8491,4816,down
1.54436E+12,0,-284,-6.24E-05,41,60,98,125069,16769964,16749549,32527,29139,16666,8491,4816,down
1.54436E+12,0,-292,-6.42E-05,41,60,98,125069,16769964,16749549,32527,29139,16666,8491,4816,down
1.54436E+12,0,-279,-6.13E-05,41,60,98,125069,16769964,16749549,32527,29139,16666,8491,4816,down
1.54436E+12,0,26,5.71E-06,41,60,98,125069,16769964,16749549,32527,29139,16666,8491,4816,down
1.54436E+12,0,82,1.80E-05,41,60,98,125069,16769964,16749549,32527,29139,16666,8491,4816,down
1.54436E+12,0,104,2.29E-05,41,60,98,125069,16769964,16749549,32527,29139,16666,8491,4816,down
1.54436E+12,0,88,1.93E-05,41,60,98,125069,16769964,16749549,32527,29139,16666,8491,4816,down
1.54436E+12,0,42,9.23E-06,41,60,98,125069,16769964,16749549,32527,29139,16666,8491,4816,down
1.54436E+12,0,5,1.10E-06,41,60,98,125069,16769964,16749549,32527,29139,16666,8491,4816,down
1.54436E+12,0,10,2.20E-06,41,60,98,125069,16769964,16749549,32527,29139,16666,8491,4816,down
1.54436E+12,0,54,1.19E-05,41,60,98,125069,16769964,16749549,32527,29139,16666,8491,4816,down
1.54436E+12,0,69,1.52E-05,41,60,98,125069,16769964,16749549,32527,29139,16666,8491,4816,down
1.54436E+12,0,58,1.27E-05,41,60,98,125069,16769964,16749549,32527,29139,16666,8491,4816,down
1.54436E+12,0,58,1.27E-05,41,60,98,125069,16769964,16749549,32527,29139,16666,8491,4816,down
1.54436E+12,0,73,1.60E-05,41,60,98,125069,16769964,16749549,32527,29139,16666,8491,4816,down
1.54436E+12,0,96,2.11E-05,41,60,98,125069,16769964,16749549,32527,29139,16666,8491,4816,down
1.54436E+12,0,85,1.87E-05,41,60,98,125069,16769964,16749549,32527,29139,16666,8491,4816,down
1.54436E+12,0,33,7.25E-06,41,60,98,125069,16769964,16749549,32527,29139,16666,8491,4816,down
1.54436E+12,0,-270,-5.93E-05,41,60,98,125069,16769964,16749549,32527,29139,16666,8491,4816,down
1.54436E+12,0,-279,-6.13E-05,41,60,98,125069,16769964,16749549,32527,29139,16666,8491,4816,down
1.54436E+12,0,-268,-5.89E-05,41,60,98,125069,16769964,16749549,32527,29139,16666,8491,4816,down
1.54436E+12,0,-275,-6.04E-05,41,60,98,125069,16769964,16749549,32527,29139,16666,8491,4816,down
1.54436E+12,0,5,1.10E-06,41,53,98,320348,16749545,8573,2766,13685,8326,11056,5185,down
1.54436E+12,0,36,7.91E-06,41,53,98,320348,16749545,8573,2766,13685,8326,11056,5185,down
1.54436E+12,0,39,8.57E-06,41,53,98,320348,16749545,8573,2766,13685,8326,11056,5185,down
1.54436E+12,0,54,1.19E-05,41,53,98,320348,16749545,8573,2766,13685,8326,11056,5185,down
1.54436E+12,0,52,1.14E-05,41,53,98,320348,16749545,8573,2766,13685,8326,11056,5185,down
1.54436E+12,0,24,5.27E-06,41,53,98,320348,16749545,8573,2766,13685,8326,11056,5185,down
1.54436E+12,0,8,1.76E-06,41,53,98,320348,16749545,8573,2766,13685,8326,11056,5185,down
1.54436E+12,0,26,5.71E-06,41,53,98,320348,16749545,8573,2766,13685,8326,11056,5185,down
1.54436E+12,0,38,8.35E-06,41,53,98,320348,16749545,8573,2766,13685,8326,11056,5185,down
1.54436E+12,0,29,6.37E-06,41,53,98,320348,16749545,8573,2766,13685,8326,11056,5185,down
1.54436E+12,0,44,9.67E-06,41,53,98,320348,16749545,8573,2766,13685,8326,11056,5185,down
1.54436E+12,0,33,7.25E-06,41,53,98,320348,16749545,8573,2766,13685,8326,11056,5185,down
1.54436E+12,0,-269,-5.91E-05,41,53,98,320348,16749545,8573,2766,13685,8326,11056,5185,down
1.54436E+12,0,-294,-6.46E-05,41,53,98,320348,16749545,8573,2766,13685,8326,11056,5185,down
1.54436E+12,0,-276,-6.06E-05,41,53,98,320348,16749545,8573,2766,13685,8326,11056,5185,down
1.54436E+12,0,16,3.52E-06,41,53,98,320348,16749545,8573,2766,13685,8326,11056,5185,down
1.54436E+12,0,26,5.71E-06,41,53,98,320348,16749545,8573,2766,13685,8326,11056,5185,down
1.54436E+12,0,26,5.71E-06,41,53,98,320348,16749545,8573,2766,13685,8326,11056,5185,down
1.54436E+12,0,20,4.39E-06,41,53,98,320348,16749545,8573,2766,13685,8326,11056,5185,down
1.54436E+12,0,7,1.54E-06,41,53,98,320348,16749545,8573,2766,13685,8326,11056,5185,down
1.54436E+12,0,-265,-5.82E-05,41,53,98,320348,16749545,8573,2766,13685,8326,11056,5185,down
1.54436E+12,0,-269,-5.91E-05,41,53,98,320348,16749545,8573,2766,13685,8326,11056,5185,down
1.54436E+12,0,5,1.10E-06,41,53,98,320348,16749545,8573,2766,13685,8326,11056,5185,down
1.54436E+12,0,23,5.05E-06,41,53,98,320348,16749545,8573,2766,13685,8326,11056,5185,down
1.54436E+12,0,32,7.03E-06,41,53,98,320348,16749545,8573,2766,13685,8326,11056,5185,down
1.54436E+12,0,61,1.34E-05,41,53,98,320348,16749545,8573,2766,13685,8326,11056,5185,down
1.54436E+12,0,89,1.96E-05,41,53,98,320348,16749545,8573,2766,13685,8326,11056,5185,down
1.54436E+12,0,91,2.00E-05,41,53,98,320348,16749545,8573,2766,13685,8326,11056,5185,down
1.54436E+12,0,74,1.63E-05,41,53,98,320348,16749545,8573,2766,13685,8326,11056,5185,down
1.54436E+12,0,40,8.79E-06,41,53,98,320348,16749545,8573,2766,13685,8326,11056,5185,down
1.54436E+12,0,12,2.64E-06,41,53,98,320348,16749545,8573,2766,13685,8326,11056,5185,down
1.54436E+12,0,7,1.54E-06,41,53,98,320348,16749545,8573,2766,13685,8326,11056,5185,down
1.54436E+12,0,24,5.27E-06,41,53,98,320348,16749545,8573,2766,13685,8326,11056,5185,down
1.54436E+12,0,41,9.01E-06,41,53,98,320348,16749545,8573,2766,13685,8326,11056,5185,down
1.54436E+12,0,68,1.49E-05,41,53,98,320348,16749545,8573,2766,13685,8326,11056,5185,down
1.54436E+12,0,81,1.78E-05,41,53,98,320348,16749545,8573,2766,13685,8326,11056,5185,down
1.54436E+12,0,77,1.69E-05,41,53,98,320348,16749545,8573,2766,13685,8326,11056,5185,down
1.54436E+12,0,75,1.65E-05,41,53,98,320348,16749545,8573,2766,13685,8326,11056,5185,down
1.54436E+12,0,88,1.93E-05,41,53,98,320348,16749545,8573,2766,13685,8326,11056,5185,down
1.54436E+12,0,122,2.68E-05,41,53,98,320348,16749545,8573,2766,13685,8326,11056,5185,down
1.54436E+12,0,-110,-2.42E-05,41,53,98,320348,16749545,8573,2766,13685,8326,11056,5185,down
1.54436E+12,0,125,2.75E-05,41,53,98,320348,16749545,8573,2766,13685,8326,11056,5185,down
1.54436E+12,0,53,1.16E-05,41,53,98,320348,16749545,8573,2766,13685,8326,11056,5185,down
1.54436E+12,0,-278,-6.11E-05,41,53,98,320348,16749545,8573,2766,13685,8326,11056,5185,down
1.54436E+12,0,-281,-6.17E-05,41,53,98,320348,16749545,8573,2766,13685,8326,11056,5185,down
1.54436E+12,0,3,6.59E-07,41,53,98,320348,16749545,8573,2766,13685,8326,11056,5185,down
1.54436E+12,0,5,1.10E-06,41,53,98,320348,16749545,8573,2766,13685,8326,11056,5185,down
1.54436E+12,0,4,8.79E-07,41,53,98,320348,16749545,8573,2766,13685,8326,11056,5185,down
1.54436E+12,0,34,7.47E-06,41,53,98,320348,16749545,8573,2766,13685,8326,11056,5185,down
1.54436E+12,0,70,1.54E-05,41,53,98,320348,16749545,8573,2766,13685,8326,11056,5185,down
1.54436E+12,0,76,1.67E-05,41,53,98,320348,16749545,8573,2766,13685,8326,11056,5185,down
1.54436E+12,0,49,1.08E-05,41,53,98,320348,16749545,8573,2766,13685,8326,11056,5185,down
1.54436E+12,0,9,1.98E-06,41,53,98,320348,16749545,8573,2766,13685,8326,11056,5185,down
1.54436E+12,0,-257,-5.65E-05,41,53,98,320348,16749545,8573,2766,13685,8326,11056,5185,down
1.54436E+12,0,8,1.76E-06,41,53,98,320348,16749545,8573,2766,13685,8326,11056,5185,down
1.54436E+12,0,16,3.52E-06,41,53,98,320348,16749545,8573,2766,13685,8326,11056,5185,down
1.54436E+12,0,27,5.93E-06,41,53,98,320348,16749545,8573,2766,13685,8326,11056,5185,down
1.54436E+12,0,57,1.25E-05,41,53,98,320348,16749545,8573,2766,13685,8326,11056,5185,down
1.54436E+12,0,64,1.41E-05,41,53,98,320348,16749545,8573,2766,13685,8326,11056,5185,down
1.54436E+12,0,48,1.05E-05,41,53,98,320348,16749545,8573,2766,13685,8326,11056,5185,down
1.54436E+12,0,45,9.89E-06,41,53,98,320348,16749545,8573,2766,13685,8326,11056,5185,down
1.54436E+12,0,76,1.67E-05,41,53,98,320348,16749545,8573,2766,13685,8326,11056,5185,down
1.54436E+12,0,106,2.33E-05,41,53,98,320348,16749545,8573,2766,13685,8326,11056,5185,down
1.54436E+12,0,96,2.11E-05,41,53,98,320348,16749545,8573,2766,13685,8326,11056,5185,down
1.54436E+12,0,71,1.56E-05,41,53,98,320348,16749545,8573,2766,13685,8326,11056,5185,down
1.54436E+12,0,56,1.23E-05,41,53,98,320348,16749545,8573,2766,13685,8326,11056,5185,down
1.54436E+12,0,29,6.37E-06,41,53,98,320348,16749545,8573,2766,13685,8326,11056,5185,down
1.54436E+12,0,7,1.54E-06,41,53,98,320348,16749545,8573,2766,13685,8326,11056,5185,down
1.54436E+12,0,4,8.79E-07,41,53,98,320348,16749545,8573,2766,13685,8326,11056,5185,down
1.54436E+12,0,-261,-5.73E-05,41,53,98,320348,16749545,8573,2766,13685,8326,11056,5185,down
1.54436E+12,0,-307,-6.75E-05,41,53,98,320348,16749545,8573,2766,13685,8326,11056,5185,down
1.54436E+12,0,-328,-7.21E-05,41,53,98,320348,16749545,8573,2766,13685,8326,11056,5185,down
1.54436E+12,0,-293,-6.44E-05,41,53,98,320348,16749545,8573,2766,13685,8326,11056,5185,down
1.54436E+12,0,3,6.59E-07,41,53,98,320348,16749545,8573,2766,13685,8326,11056,5185,down
1.54436E+12,0,24,5.27E-06,41,53,98,320348,16749545,8573,2766,13685,8326,11056,5185,down
1.54436E+12,0,60,1.32E-05,41,53,98,320348,16749545,8573,2766,13685,8326,11056,5185,down
1.54436E+12,0,115,2.53E-05,41,53,98,320348,16749545,8573,2766,13685,8326,11056,5185,down
1.54436E+12,0,-108,-2.37E-05,41,53,98,320348,16749545,8573,2766,13685,8326,11056,5185,down
1.54436E+12,0,-115,-2.53E-05,41,53,98,320348,16749545,8573,2766,13685,8326,11056,5185,down
1.54436E+12,0,-124,-2.72E-05,41,53,98,320348,16749545,8573,2766,13685,8326,11056,5185,down
1.54436E+12,0,-108,-2.37E-05,41,53,98,320348,16749545,8573,2766,13685,8326,11056,5185,down
1.54436E+12,0,-99,-2.18E-05,41,53,98,320348,16749545,8573,2766,13685,8326,11056,5185,down
1.54436E+12,0,-124,-2.72E-05,41,53,98,320348,16749545,8573,2766,13685,8326,11056,5185,down
1.54436E+12,0,87,1.91E-05,41,53,98,320348,16749545,8573,2766,13685,8326,11056,5185,down
1.54436E+12,0,84,1.85E-05,41,53,98,320348,16749545,8573,2766,13685,8326,11056,5185,down
1.54436E+12,0,90,1.98E-05,41,53,98,320348,16749545,8573,2766,13685,8326,11056,5185,down
1.54436E+12,0,50,1.10E-05,41,53,98,320348,16749545,8573,2766,13685,8326,11056,5185,down
1.54436E+12,0,-262,-5.76E-05,41,53,98,320348,16749545,8573,2766,13685,8326,11056,5185,down
1.54436E+12,0,-275,-6.04E-05,41,53,98,320348,16749545,8573,2766,13685,8326,11056,5185,down
1.54436E+12,0,-258,-5.67E-05,41,53,98,320348,16749545,8573,2766,13685,8326,11056,5185,down
1.54436E+12,0,11,2.42E-06,41,53,98,320348,16749545,8573,2766,13685,8326,11056,5185,down
1.54436E+12,0,17,3.74E-06,41,53,98,320348,16749545,8573,2766,13685,8326,11056,5185,down
1.54436E+12,0,20,4.39E-06,41,53,98,320348,16749545,8573,2766,13685,8326,11056,5185,down
1.54436E+12,0,26,5.71E-06,41,53,98,320348,16749545,8573,2766,13685,8326,11056,5185,down
1.54436E+12,0,13,2.86E-06,41,53,98,320348,16749545,8573,2766,13685,8326,11056,5185,down
1.54436E+12,0,-277,-6.09E-05,41,53,98,320348,16749545,8573,2766,13685,8326,11056,5185,down
1.54436E+12,0,-317,-6.97E-05,41,53,98,320348,16749545,8573,2766,13685,8326,11056,5185,down
1.54436E+12,0,-338,-7.43E-05,41,53,98,320348,16749545,8573,2766,13685,8326,11056,5185,down
1.54436E+12,0,-314,-6.90E-05,41,53,98,320348,16749545,8573,2766,13685,8326,11056,5185,down
1.54436E+12,0,-276,-6.06E-05,41,53,98,320348,16749545,8573,2766,13685,8326,11056,5185,down
1.54436E+12,0,8,1.76E-06,41,53,98,320348,16749545,8573,2766,13685,8326,11056,5185,down
1.54436E+12,0,26,5.71E-06,41,53,98,320348,16749545,8573,2766,13685,8326,11056,5185,down
1.54436E+12,0,49,1.08E-05,41,53,98,320348,16749545,8573,2766,13685,8326,11056,5185,down
1.54436E+12,0,57,1.25E-05,41,53,98,320348,16749545,8573,2766,13685,8326,11056,5185,down
1.54436E+12,0,58,1.27E-05,41,53,98,320348,16749545,8573,2766,13685,8326,11056,5185,down
1.54436E+12,0,74,1.63E-05,41,53,98,320348,16749545,8573,2766,13685,8326,11056,5185,down
1.54436E+12,0,84,1.85E-05,41,53,98,320348,16749545,8573,2766,13685,8326,11056,5185,down
1.54436E+12,0,90,1.98E-05,41,53,98,320348,16749545,8573,2766,13685,8326,11056,5185,down
1.54436E+12,0,89,1.96E-05,41,53,98,320348,16749545,8573,2766,13685,8326,11056,5185,down
1.54436E+12,0,87,1.91E-05,41,53,98,320348,16749545,8573,2766,13685,8326,11056,5185,down
1.54436E+12,0,87,1.91E-05,41,53,98,320348,16749545,8573,2766,13685,8326,11056,5185,down
1.54436E+12,0,89,1.96E-05,41,53,98,320348,16749545,8573,2766,13685,8326,11056,5185,down
1.54436E+12,0,97,2.13E-05,41,53,98,320348,16749545,8573,2766,13685,8326,11056,5185,down
1.54436E+12,0,106,2.33E-05,41,53,98,320348,16749545,8573,2766,13685,8326,11056,5185,down
1.54436E+12,0,108,2.37E-05,41,53,98,320348,16749545,8573,2766,13685,8326,11056,5185,down
1.54436E+12,0,102,2.24E-05,41,53,98,320348,16749545,8573,2766,13685,8326,11056,5185,down
1.54436E+12,0,114,2.50E-05,41,53,98,320348,16749545,8573,2766,13685,8326,11056,5185,down
1.54436E+12,0,-128,-2.81E-05,41,53,98,320348,16749545,8573,2766,13685,8326,11056,5185,down
1.54436E+12,0,115,2.53E-05,41,53,98,320348,16749545,8573,2766,13685,8326,11056,5185,down
1.54436E+12,0,69,1.52E-05,41,53,98,320348,16749545,8573,2766,13685,8326,11056,5185,down
1.54436E+12,0,22,4.83E-06,41,53,98,320348,16749545,8573,2766,13685,8326,11056,5185,down
1.54436E+12,0,-268,-5.89E-05,41,53,98,320348,16749545,8573,2766,13685,8326,11056,5185,down
1.54436E+12,0,-310,-6.81E-05,41,53,98,320348,16749545,8573,2766,13685,8326,11056,5185,down
1.54436E+12,0,-337,-7.40E-05,41,53,98,320348,16749545,8573,2766,13685,8326,11056,5185,down
1.54436E+12,0,-329,-7.23E-05,41,53,98,320348,16749545,8573,2766,13685,8326,11056,5185,down
1.54436E+12,0,-293,-6.44E-05,41,53,98,320348,16749545,8573,2766,13685,8326,11056,5185,down
1.54436E+12,0,28,6.15E-06,41,53,98,320348,16749545,8573,2766,13685,8326,11056,5185,down
1.54436E+12,0,77,1.69E-05,41,53,98,320348,16749545,8573,2766,13685,8326,11056,5185,down
1.54436E+12,0,60,1.32E-05,41,53,98,320348,16749545,8573,2766,13685,8326,11056,5185,down
1.54436E+12,0,6,1.32E-06,41,53,98,320348,16749545,8573,2766,13685,8326,11056,5185,down
1.54436E+12,0,-291,-6.39E-05,41,53,98,320348,16749545,8573,2766,13685,8326,11056,5185,down
1.54436E+12,0,-274,-6.02E-05,41,53,98,320348,16749545,8573,2766,13685,8326,11056,5185,down
1.54436E+12,0,50,1.10E-05,41,53,98,320348,16749545,8573,2766,13685,8326,11056,5185,down
1.54436E+12,0,104,2.29E-05,41,53,98,320348,16749545,8573,2766,13685,8326,11056,5185,down
1.54436E+12,0,-128,-2.81E-05,41,53,98,320348,16749545,8573,2766,13685,8326,11056,5185,down
1.54436E+12,0,104,2.29E-05,41,53,98,320348,16749545,8573,2766,13685,8326,11056,5185,down
1.54436E+12,0,40,8.79E-06,41,53,98,320348,16749545,8573,2766,13685,8326,11056,5185,down
1.54436E+12,0,-263,-5.78E-05,41,53,98,320348,16749545,8573,2766,13685,8326,11056,5185,down
1.54436E+12,0,-274,-6.02E-05,41,53,98,320348,16749545,8573,2766,13685,8326,11056,5185,down
1.54436E+12,0,1,2.20E-07,41,53,98,320348,16749545,8573,2766,13685,8326,11056,5185,down
1.54436E+12,0,17,3.74E-06,41,53,98,320348,16749545,8573,2766,13685,8326,11056,5185,down
1.54436E+12,0,-262,-5.76E-05,41,53,98,320348,16749545,8573,2766,13685,8326,11056,5185,down
1.54436E+12,0,-274,-6.02E-05,41,53,98,320348,16749545,8573,2766,13685,8326,11056,5185,down
1.54436E+12,0,20,4.39E-06,41,53,98,320348,16749545,8573,2766,13685,8326,11056,5185,down
1.54436E+12,0,52,1.14E-05,41,53,98,320348,16749545,8573,2766,13685,8326,11056,5185,down
1.54436E+12,0,60,1.32E-05,41,53,98,320348,16749545,8573,2766,13685,8326,11056,5185,down
1.54436E+12,0,67,1.47E-05,41,53,98,320348,16749545,8573,2766,13685,8326,11056,5185,down
1.54436E+12,0,77,1.69E-05,41,53,98,320348,16749545,8573,2766,13685,8326,11056,5185,down
1.54436E+12,0,85,1.87E-05,41,53,98,320348,16749545,8573,2766,13685,8326,11056,5185,down
1.54436E+12,0,83,1.82E-05,41,53,98,320348,16749545,8573,2766,13685,8326,11056,5185,down
1.54436E+12,0,82,1.80E-05,41,53,98,320348,16749545,8573,2766,13685,8326,11056,5185,down
1.54436E+12,0,81,1.78E-05,41,53,98,320348,16749545,8573,2766,13685,8326,11056,5185,down
1.54436E+12,0,88,1.93E-05,41,53,98,320348,16749545,8573,2766,13685,8326,11056,5185,down
1.54436E+12,0,102,2.24E-05,41,53,98,320348,16749545,8573,2766,13685,8326,11056,5185,down
1.54436E+12,0,80,1.76E-05,41,53,98,320348,16749545,8573,2766,13685,8326,11056,5185,down
1.54436E+12,0,9,1.98E-06,41,53,98,320348,16749545,8573,2766,13685,8326,11056,5185,down
1.54436E+12,0,-299,-6.57E-05,41,53,98,320348,16749545,8573,2766,13685,8326,11056,5185,down
1.54436E+12,0,-277,-6.09E-05,41,53,98,320348,16749545,8573,2766,13685,8326,11056,5185,down
1.54436E+12,0,50,1.10E-05,41,53,98,320348,16749545,8573,2766,13685,8326,11056,5185,down
1.54436E+12,0,68,1.49E-05,41,53,98,320348,16749545,8573,2766,13685,8326,11056,5185,down
1.54436E+12,0,21,4.61E-06,41,53,98,320348,16749545,8573,2766,13685,8326,11056,5185,down
1.54436E+12,0,3,6.59E-07,41,53,98,320348,16749545,8573,2766,13685,8326,11056,5185,down
1.54436E+12,0,34,7.47E-06,41,53,98,320348,16749545,8573,2766,13685,8326,11056,5185,down
1.54436E+12,0,85,1.87E-05,41,53,98,320348,16749545,8573,2766,13685,8326,11056,5185,down
1.54436E+12,0,108,2.37E-05,41,53,98,320348,16749545,8573,2766,13685,8326,11056,5185,down
1.54436E+12,0,91,2.00E-05,41,53,98,320348,16749545,8573,2766,13685,8326,11056,5185,down
1.54436E+12,0,60,1.32E-05,41,53,98,320348,16749545,8573,2766,13685,8326,11056,5185,down
1.54436E+12,0,38,8.35E-06,41,53,98,320348,16749545,8573,2766,13685,8326,11056,5185,down
1.54436E+12,0,23,5.05E-06,41,53,98,320348,16749545,8573,2766,13685,8326,11056,5185,down
1.54436E+12,0,1,2.20E-07,41,53,98,320348,16749545,8573,2766,13685,8326,11056,5185,down
1.54436E+12,0,-276,-6.06E-05,41,53,98,320348,16749545,8573,2766,13685,8326,11056,5185,down
1.54436E+12,0,-276,-6.06E-05,41,53,98,320348,16749545,8573,2766,13685,8326,11056,5185,down
1.54436E+12,0,-269,-5.91E-05,41,53,98,320348,16749545,8573,2766,13685,8326,11056,5185,down
1.54436E+12,0,-281,-6.17E-05,41,53,98,320348,16749545,8573,2766,13685,8326,11056,5185,down
1.54436E+12,0,-299,-6.57E-05,41,53,98,320348,16749545,8573,2766,13685,8326,11056,5185,down
1.54436E+12,0,-299,-6.57E-05,41,53,98,320348,16749545,8573,2766,13685,8326,11056,5185,down
1.54436E+12,0,-277,-6.09E-05,41,53,98,320348,16749545,8573,2766,13685,8326,11056,5185,down
1.54436E+12,0,-259,-5.69E-05,41,53,98,320348,16749545,8573,2766,13685,8326,11056,5185,down
1.54436E+12,0,4,8.79E-07,41,53,98,320348,16749545,8573,2766,13685,8326,11056,5185,down
1.54436E+12,0,19,4.17E-06,41,53,98,320348,16749545,8573,2766,13685,8326,11056,5185,down
1.54436E+12,0,36,7.91E-06,41,53,98,320348,16749545,8573,2766,13685,8326,11056,5185,down
1.54436E+12,0,28,6.15E-06,41,53,98,320348,16749545,8573,2766,13685,8326,11056,5185,down
1.54436E+12,0,24,5.27E-06,41,53,98,320348,16749545,8573,2766,13685,8326,11056,5185,down
1.54436E+12,0,51,1.12E-05,41,53,98,320348,16749545,8573,2766,13685,8326,11056,5185,down
1.54436E+12,0,82,1.80E-05,41,53,98,320348,16749545,8573,2766,13685,8326,11056,5185,down
1.54436E+12,0,82,1.80E-05,41,53,98,320348,16749545,8573,2766,13685,8326,11056,5185,down
1.54436E+12,0,60,1.32E-05,41,53,98,320348,16749545,8573,2766,13685,8326,11056,5185,down
1.54436E+12,0,39,8.57E-06,41,53,98,320348,16749545,8573,2766,13685,8326,11056,5185,down
1.54436E+12,0,37,8.13E-06,41,53,98,320348,16749545,8573,2766,13685,8326,11056,5185,down
1.54436E+12,0,52,1.14E-05,41,53,98,320348,16749545,8573,2766,13685,8326,11056,5185,down
1.54436E+12,0,52,1.14E-05,41,53,98,320348,16749545,8573,2766,13685,8326,11056,5185,down
1.54436E+12,0,32,7.03E-06,41,53,98,320348,16749545,8573,2766,13685,8326,11056,5185,down
1.54436E+12,0,10,2.20E-06,41,53,98,320348,16749545,8573,2766,13685,8326,11056,5185,down
1.54436E+12,0,1,2.20E-07,41,53,98,320348,16749545,8573,2766,13685,8326,11056,5185,down
1.54436E+12,0,2,4.39E-07,41,53,98,320348,16749545,8573,2766,13685,8326,11056,5185,down
1.54436E+12,0,18,3.96E-06,41,53,98,320348,16749545,8573,2766,13685,8326,11056,5185,down
1.54436E+12,0,21,4.61E-06,41,53,98,320348,16749545,8573,2766,13685,8326,11056,5185,down
1.54436E+12,0,12,2.64E-06,41,53,98,320348,16749545,8573,2766,13685,8326,11056,5185,down
1.54436E+12,0,17,3.74E-06,41,53,98,320348,16749545,8573,2766,13685,8326,11056,5185,down
1.54436E+12,0,45,9.89E-06,41,53,98,320348,16749545,8573,2766,13685,8326,11056,5185,down
1.54436E+12,0,87,1.91E-05,41,53,98,320348,16749545,8573,2766,13685,8326,11056,5185,down
1.54436E+12,0,-126,-2.77E-05,41,53,98,320348,16749545,8573,2766,13685,8326,11056,5185,down
1.54436E+12,0,-107,-2.35E-05,41,53,98,320348,16749545,8573,2766,13685,8326,11056,5185,down
1.54436E+12,0,-116,-2.55E-05,41,53,98,320348,16749545,8573,2766,13685,8326,11056,5185,down
1.54436E+12,0,-125,-2.75E-05,41,53,98,320348,16749545,8573,2766,13685,8326,11056,5185,down
1.54436E+12,0,121,2.66E-05,41,53,98,320348,16749545,8573,2766,13685,8326,11056,5185,down
1.54436E+12,0,108,2.37E-05,41,53,98,320348,16749545,8573,2766,13685,8326,11056,5185,down
1.54436E+12,0,96,2.11E-05,41,53,98,320348,16749545,8573,2766,13685,8326,11056,5185,down
1.54436E+12,0,85,1.87E-05,41,53,98,320348,16749545,8573,2766,13685,8326,11056,5185,down
1.54436E+12,0,65,1.43E-05,41,53,98,320348,16749545,8573,2766,13685,8326,11056,5185,down
1.54436E+12,0,64,1.41E-05,41,53,98,320348,16749545,8573,2766,13685,8326,11056,5185,down
1.54436E+12,0,88,1.93E-05,41,53,98,320348,16749545,8573,2766,13685,8326,11056,5185,down
1.54436E+12,0,97,2.13E-05,41,53,98,320348,16749545,8573,2766,13685,8326,11056,5185,down
1.54436E+12,0,85,1.87E-05,41,53,98,320348,16749545,8573,2766,13685,8326,11056,5185,down
1.54436E+12,0,83,1.82E-05,41,53,98,320348,16749545,8573,2766,13685,8326,11056,5185,down
1.54436E+12,0,100,2.20E-05,41,53,98,320348,16749545,8573,2766,13685,8326,11056,5185,down
1.54436E+12,0,102,2.24E-05,41,53,98,320348,16749545,8573,2766,13685,8326,11056,5185,down
1.54436E+12,0,104,2.29E-05,41,53,98,320348,16749545,8573,2766,13685,8326,11056,5185,down
1.54436E+12,0,116,2.55E-05,41,53,98,320348,16749545,8573,2766,13685,8326,11056,5185,down
1.54436E+12,0,123,2.70E-05,41,53,98,320348,16749545,8573,2766,13685,8326,11056,5185,down
1.54436E+12,0,-128,-2.81E-05,41,53,98,320348,16749545,8573,2766,13685,8326,11056,5185,down
1.54436E+12,0,-128,-2.81E-05,41,53,98,320348,16749545,8573,2766,13685,8326,11056,5185,down
1.54436E+12,0,-122,-2.68E-05,41,53,98,320348,16749545,8573,2766,13685,8326,11056,5185,down
1.54436E+12,0,-126,-2.77E-05,41,53,98,320348,16749545,8573,2766,13685,8326,11056,5185,down
1.54436E+12,0,108,2.37E-05,41,53,98,320348,16749545,8573,2766,13685,8326,11056,5185,down
1.54436E+12,0,84,1.85E-05,41,53,98,320348,16749545,8573,2766,13685,8326,11056,5185,down
1.54436E+12,0,56,1.23E-05,41,53,98,320348,16749545,8573,2766,13685,8326,11056,5185,down
1.54436E+12,0,41,9.01E-06,41,53,98,320348,16749545,8573,2766,13685,8326,11056,5185,down
1.54436E+12,0,49,1.08E-05,41,53,98,320348,16749545,8573,2766,13685,8326,11056,5185,down
1.54436E+12,0,57,1.25E-05,41,53,98,320348,16749545,8573,2766,13685,8326,11056,5185,down
1.54436E+12,0,44,9.67E-06,41,53,98,320348,16749545,8573,2766,13685,8326,11056,5185,down
1.54436E+12,0,20,4.39E-06,41,53,98,320348,16749545,8573,2766,13685,8326,11056,5185,down
1.54436E+12,0,24,5.27E-06,41,53,98,320348,16749545,8573,2766,13685,8326,11056,5185,down
1.54436E+12,0,54,1.19E-05,41,53,98,320348,16749545,8573,2766,13685,8326,11056,5185,down
1.54436E+12,0,69,1.52E-05,41,53,98,320348,16749545,8573,2766,13685,8326,11056,5185,down
1.54436E+12,0,77,1.69E-05,41,53,98,320348,16749545,8573,2766,13685,8326,11056,5185,down
1.54436E+12,0,71,1.56E-05,41,53,98,320348,16749545,8573,2766,13685,8326,11056,5185,down
1.54436E+12,0,40,8.79E-06,41,53,98,320348,16749545,8573,2766,13685,8326,11056,5185,down
1.54436E+12,0,26,5.71E-06,41,53,98,320348,16749545,8573,2766,13685,8326,11056,5185,down
1.54436E+12,0,37,8.13E-06,41,53,98,320348,16749545,8573,2766,13685,8326,11056,5185,down
1.54436E+12,0,54,1.19E-05,41,53,98,320348,16749545,8573,2766,13685,8326,11056,5185,down
1.54436E+12,0,67,1.47E-05,41,53,98,320348,16749545,8573,2766,13685,8326,11056,5185,down
1.54436E+12,0,50,1.10E-05,41,53,98,320348,16749545,8573,2766,13685,8326,11056,5185,down
1.54436E+12,0,27,5.93E-06,41,53,98,320348,16749545,8573,2766,13685,8326,11056,5185,down
1.54436E+12,0,24,5.27E-06,41,53,98,320348,16749545,8573,2766,13685,8326,11056,5185,down
1.54436E+12,0,36,7.91E-06,41,53,98,320348,16749545,8573,2766,13685,8326,11056,5185,down
1.54436E+12,0,49,1.08E-05,41,53,98,320348,16749545,8573,2766,13685,8326,11056,5185,down
1.54436E+12,0,64,1.41E-05,41,53,98,320348,16749545,8573,2766,13685,8326,11056,5185,down
1.54436E+12,0,99,2.18E-05,41,53,98,320348,16749545,8573,2766,13685,8326,11056,5185,down
1.54436E+12,0,121,2.66E-05,41,53,98,320348,16749545,8573,2766,13685,8326,11056,5185,down
1.54436E+12,0,114,2.50E-05,41,53,98,320348,16749545,8573,2766,13685,8326,11056,5185,down
1.54436E+12,0,92,2.02E-05,41,53,98,320348,16749545,8573,2766,13685,8326,11056,5185,down
1.54436E+12,0,80,1.76E-05,41,53,98,320348,16749545,8573,2766,13685,8326,11056,5185,down
1.54436E+12,0,83,1.82E-05,41,53,98,320348,16749545,8573,2766,13685,8326,11056,5185,down
1.54436E+12,0,89,1.96E-05,41,53,98,320348,16749545,8573,2766,13685,8326,11056,5185,down
1.54436E+12,0,81,1.78E-05,41,53,98,320348,16749545,8573,2766,13685,8326,11056,5185,down
1.54436E+12,0,69,1.52E-05,41,53,98,320348,16749545,8573,2766,13685,8326,11056,5185,down
1.54436E+12,0,81,1.78E-05,41,53,98,320348,16749545,8573,2766,13685,8326,11056,5185,down
1.54436E+12,0,74,1.63E-05,41,53,98,320348,16749545,8573,2766,13685,8326,11056,5185,down
1.54436E+12,0,36,7.91E-06,41,53,98,320348,16749545,8573,2766,13685,8326,11056,5185,down
1.54436E+12,0,19,4.17E-06,41,53,98,320348,16749545,8573,2766,13685,8326,11056,5185,down
1.54436E+12,0,24,5.27E-06,41,53,98,320348,16749545,8573,2766,13685,8326,11056,5185,down
1.54436E+12,0,56,1.23E-05,41,53,98,320348,16749545,8573,2766,13685,8326,11056,5185,down
1.54436E+12,0,93,2.04E-05,41,53,98,320348,16749545,8573,2766,13685,8326,11056,5185,down
1.54436E+12,0,105,2.31E-05,41,53,98,320348,16749545,8573,2766,13685,8326,11056,5185,down
1.54436E+12,0,88,1.93E-05,41,53,98,320348,16749545,8573,2766,13685,8326,11056,5185,down
1.54436E+12,0,89,1.96E-05,41,53,98,320348,16749545,8573,2766,13685,8326,11056,5185,down
1.54436E+12,0,104,2.29E-05,41,53,98,320348,16749545,8573,2766,13685,8326,11056,5185,down
1.54436E+12,0,-122,-2.68E-05,41,53,98,320348,16749545,8573,2766,13685,8326,11056,5185,down
1.54436E+12,0,-105,-2.31E-05,41,53,98,320348,16749545,8573,2766,13685,8326,11056,5185,down
1.54436E+12,0,-112,-2.46E-05,41,53,98,320348,16749545,8573,2766,13685,8326,11056,5185,down
1.54436E+12,0,122,2.68E-05,41,53,98,320348,16749545,8573,2766,13685,8326,11056,5185,down
1.54436E+12,0,88,1.93E-05,41,53,98,320348,16749545,8573,2766,13685,8326,11056,5185,down
1.54436E+12,0,40,8.79E-06,41,53,98,320348,16749545,8573,2766,13685,8326,11056,5185,down
1.54436E+12,0,-257,-5.65E-05,41,53,98,320348,16749545,8573,2766,13685,8326,11056,5185,down
1.54436E+12,0,-267,-5.87E-05,41,53,98,320348,16749545,8573,2766,13685,8326,11056,5185,down
1.54436E+12,0,-260,-5.71E-05,41,53,98,320348,16749545,8573,2766,13685,8326,11056,5185,down
1.54436E+12,0,8,1.76E-06,41,53,98,320348,16749545,8573,2766,13685,8326,11056,5185,down
1.54436E+12,0,19,4.17E-06,41,53,98,320348,16749545,8573,2766,13685,8326,11056,5185,down
1.54436E+12,0,19,4.17E-06,41,53,98,320348,16749545,8573,2766,13685,8326,11056,5185,down
1.54436E+12,0,11,2.42E-06,41,53,98,320348,16749545,8573,2766,13685,8326,11056,5185,down
1.54436E+12,0,24,5.27E-06,41,53,98,320348,16749545,8573,2766,13685,8326,11056,5185,down
1.54436E+12,0,49,1.08E-05,41,53,98,320348,16749545,8573,2766,13685,8326,11056,5185,down
1.54436E+12,0,56,1.23E-05,41,53,98,320348,16749545,8573,2766,13685,8326,11056,5185,down
1.54436E+12,0,56,1.23E-05,41,53,98,320348,16749545,8573,2766,13685,8326,11056,5185,down
1.54436E+12,0,66,1.45E-05,41,53,98,320348,16749545,8573,2766,13685,8326,11056,5185,down
1.54436E+12,0,81,1.78E-05,41,53,98,320348,16749545,8573,2766,13685,8326,11056,5185,down
1.54436E+12,0,80,1.76E-05,41,53,98,320348,16749545,8573,2766,13685,8326,11056,5185,down
1.54436E+12,0,91,2.00E-05,41,53,98,320348,16749545,8573,2766,13685,8326,11056,5185,down
1.54436E+12,0,112,2.46E-05,41,53,98,320348,16749545,8573,2766,13685,8326,11056,5185,down
1.54436E+12,0,112,2.46E-05,41,53,98,320348,16749545,8573,2766,13685,8326,11056,5185,down
1.54436E+12,0,86,1.89E-05,41,53,98,320348,16749545,8573,2766,13685,8326,11056,5185,down
1.54436E+12,0,68,1.49E-05,41,53,98,320348,16749545,8573,2766,13685,8326,11056,5185,down
1.54436E+12,0,59,1.30E-05,41,53,98,320348,16749545,8573,2766,13685,8326,11056,5185,down
1.54436E+12,0,41,9.01E-06,41,53,98,320348,16749545,8573,2766,13685,8326,11056,5185,down
1.54436E+12,0,-263,-5.78E-05,41,53,98,320348,16749545,8573,2766,13685,8326,11056,5185,down
1.54436E+12,0,-299,-6.57E-05,41,53,98,320348,16749545,8573,2766,13685,8326,11056,5185,down
1.54436E+12,0,-280,-6.15E-05,41,53,98,320348,16749545,8573,2766,13685,8326,11056,5185,down
1.54436E+12,0,21,4.61E-06,41,53,98,320348,16749545,8573,2766,13685,8326,11056,5185,down
1.54436E+12,0,59,1.30E-05,41,53,98,320348,16749545,8573,2766,13685,8326,11056,5185,down
1.54436E+12,0,69,1.52E-05,41,53,98,320348,16749545,8573,2766,13685,8326,11056,5185,down
1.54436E+12,0,56,1.23E-05,41,53,98,320348,16749545,8573,2766,13685,8326,11056,5185,down
1.54436E+12,0,64,1.41E-05,41,53,98,320348,16749545,8573,2766,13685,8326,11056,5185,down
1.54436E+12,0,96,2.11E-05,41,53,98,320348,16749545,8573,2766,13685,8326,11056,5185,down
1.54436E+12,0,112,2.46E-05,41,53,98,320348,16749545,8573,2766,13685,8326,11056,5185,down
1.54436E+12,0,85,1.87E-05,41,53,98,320348,16749545,8573,2766,13685,8326,11056,5185,down
1.54436E+12,0,45,9.89E-06,41,53,98,320348,16749545,8573,2766,13685,8326,11056,5185,down
1.54436E+12,0,22,4.83E-06,41,53,98,320348,16749545,8573,2766,13685,8326,11056,5185,down
1.54436E+12,0,23,5.05E-06,41,53,98,320348,16749545,8573,2766,13685,8326,11056,5185,down
1.54436E+12,0,50,1.10E-05,41,53,98,320348,16749545,8573,2766,13685,8326,11056,5185,down
1.54436E+12,0,87,1.91E-05,41,53,98,320348,16749545,8573,2766,13685,8326,11056,5185,down
1.54436E+12,0,98,2.15E-05,41,53,98,320348,16749545,8573,2766,13685,8326,11056,5185,down
1.54436E+12,0,86,1.89E-05,41,53,98,320348,16749545,8573,2766,13685,8326,11056,5185,down
1.54436E+12,0,80,1.76E-05,41,53,98,320348,16749545,8573,2766,13685,8326,11056,5185,down
1.54436E+12,0,83,1.82E-05,41,53,98,320348,16749545,8573,2766,13685,8326,11056,5185,down
1.54436E+12,0,84,1.85E-05,41,53,98,320348,16749545,8573,2766,13685,8326,11056,5185,down
1.54436E+12,0,75,1.65E-05,41,53,98,320348,16749545,8573,2766,13685,8326,11056,5185,down
1.54436E+12,0,76,1.67E-05,41,53,98,320348,16749545,8573,2766,13685,8326,11056,5185,down
1.54436E+12,0,86,1.89E-05,41,53,98,320348,16749545,8573,2766,13685,8326,11056,5185,down
1.54436E+12,0,74,1.63E-05,41,53,98,320348,16749545,8573,2766,13685,8326,11056,5185,down
1.54436E+12,0,43,9.45E-06,41,53,98,320348,16749545,8573,2766,13685,8326,11056,5185,down
1.54436E+12,0,55,1.21E-05,41,53,98,320348,16749545,8573,2766,13685,8326,11056,5185,down
1.54436E+12,0,86,1.89E-05,41,53,98,320348,16749545,8573,2766,13685,8326,11056,5185,down
1.54436E+12,0,87,1.91E-05,41,53,98,320348,16749545,8573,2766,13685,8326,11056,5185,down
1.54436E+12,0,60,1.32E-05,41,53,98,320348,16749545,8573,2766,13685,8326,11056,5185,down
1.54436E+12,0,27,5.93E-06,41,53,98,320348,16749545,8573,2766,13685,8326,11056,5185,down
1.54436E+12,0,-259,-5.69E-05,41,53,98,320348,16749545,8573,2766,13685,8326,11056,5185,down
1.54436E+12,0,-276,-6.06E-05,41,53,98,320348,16749545,8573,2766,13685,8326,11056,5185,down
1.54436E+12,0,-264,-5.80E-05,41,53,98,320348,16749545,8573,2766,13685,8326,11056,5185,down
1.54436E+12,0,25,5.49E-06,41,53,98,320348,16749545,8573,2766,13685,8326,11056,5185,down
1.54436E+12,0,54,1.19E-05,41,53,98,320348,16749545,8573,2766,13685,8326,11056,5185,down
1.54436E+12,0,41,9.01E-06,41,53,98,320348,16749545,8573,2766,13685,8326,11056,5185,down
1.54436E+12,0,3,6.59E-07,41,53,98,320348,16749545,8573,2766,13685,8326,11056,5185,down
1.54436E+12,0,-273,-6.00E-05,41,53,98,320348,16749545,8573,2766,13685,8326,11056,5185,down
1.54436E+12,0,-280,-6.15E-05,41,53,98,320348,16749545,8573,2766,13685,8326,11056,5185,down
1.54436E+12,0,-260,-5.71E-05,41,53,98,320348,16749545,8573,2766,13685,8326,11056,5185,down
1.54436E+12,0,45,9.89E-06,41,53,98,320348,16749545,8573,2766,13685,8326,11056,5185,down
1.54436E+12,0,72,1.58E-05,41,53,98,320348,16749545,8573,2766,13685,8326,11056,5185,down
1.54436E+12,0,48,1.05E-05,41,53,98,320348,16749545,8573,2766,13685,8326,11056,5185,down
1.54436E+12,0,-263,-5.78E-05,41,53,98,320348,16749545,8573,2766,13685,8326,11056,5185,down
1.54436E+12,0,-297,-6.53E-05,41,53,98,320348,16749545,8573,2766,13685,8326,11056,5185,down
1.54436E+12,0,-279,-6.13E-05,41,53,98,320348,16749545,8573,2766,13685,8326,11056,5185,down
1.54436E+12,0,16,3.52E-06,41,53,98,320348,16749545,8573,2766,13685,8326,11056,5185,down
1.54436E+12,0,33,7.25E-06,41,53,98,320348,16749545,8573,2766,13685,8326,11056,5185,down
1.54436E+12,0,22,4.83E-06,41,53,98,320348,16749545,8573,2766,13685,8326,11056,5185,down
1.54436E+12,0,17,3.74E-06,41,53,98,320348,16749545,8573,2766,13685,8326,11056,5185,down
1.54436E+12,0,24,5.27E-06,41,53,98,320348,16749545,8573,2766,13685,8326,11056,5185,down
1.54436E+12,0,34,7.47E-06,41,53,98,320348,16749545,8573,2766,13685,8326,11056,5185,down
1.54436E+12,0,40,8.79E-06,41,53,98,320348,16749545,8573,2766,13685,8326,11056,5185,down
1.54436E+12,0,44,9.67E-06,41,53,98,320348,16749545,8573,2766,13685,8326,11056,5185,down
1.54436E+12,0,12,2.64E-06,41,53,98,320348,16749545,8573,2766,13685,8326,11056,5185,down
1.54436E+12,0,-277,-6.09E-05,41,53,98,320348,16749545,8573,2766,13685,8326,11056,5185,down
1.54436E+12,0,-279,-6.13E-05,41,53,98,320348,16749545,8573,2766,13685,8326,11056,5185,down
1.54436E+12,0,-260,-5.71E-05,41,53,98,320348,16749545,8573,2766,13685,8326,11056,5185,down
1.54436E+12,0,32,7.03E-06,41,53,98,320348,16749545,8573,2766,13685,8326,11056,5185,down
1.54436E+12,0,57,1.25E-05,41,53,98,320348,16749545,8573,2766,13685,8326,11056,5185,down
1.54436E+12,0,54,1.19E-05,41,53,98,320348,16749545,8573,2766,13685,8326,11056,5185,down
1.54436E+12,0,43,9.45E-06,41,53,98,320348,16749545,8573,2766,13685,8326,11056,5185,down
1.54436E+12,0,42,9.23E-06,41,53,98,320348,16749545,8573,2766,13685,8326,11056,5185,down
1.54436E+12,0,28,6.15E-06,41,53,98,320348,16749545,8573,2766,13685,8326,11056,5185,down
1.54436E+12,0,2,4.39E-07,41,53,98,320348,16749545,8573,2766,13685,8326,11056,5185,down
1.54436E+12,0,-258,-5.67E-05,41,53,98,320348,16749545,8573,2766,13685,8326,11056,5185,down
1.54436E+12,0,17,3.74E-06,41,53,98,320348,16749545,8573,2766,13685,8326,11056,5185,down
1.54436E+12,0,18,3.96E-06,41,53,98,320348,16749545,8573,2766,13685,8326,11056,5185,down
1.54436E+12,0,18,3.96E-06,41,53,98,320348,16749545,8573,2766,13685,8326,11056,5185,down
1.54436E+12,0,38,8.35E-06,41,53,98,320348,16749545,8573,2766,13685,8326,11056,5185,down
1.54436E+12,0,58,1.27E-05,41,53,98,320348,16749545,8573,2766,13685,8326,11056,5185,down
1.54436E+12,0,54,1.19E-05,41,53,98,320348,16749545,8573,2766,13685,8326,11056,5185,down
1.54436E+12,0,38,8.35E-06,41,53,98,320348,16749545,8573,2766,13685,8326,11056,5185,down
1.54436E+12,0,22,4.83E-06,41,53,98,320348,16749545,8573,2766,13685,8326,11056,5185,down
1.54436E+12,0,23,5.05E-06,41,53,98,320348,16749545,8573,2766,13685,8326,11056,5185,down
1.54436E+12,0,41,9.01E-06,41,53,98,320348,16749545,8573,2766,13685,8326,11056,5185,down
1.54436E+12,0,59,1.30E-05,41,53,98,320348,16749545,8573,2766,13685,8326,11056,5185,down
1.54436E+12,0,59,1.30E-05,41,53,98,320348,16749545,8573,2766,13685,8326,11056,5185,down
1.54436E+12,0,58,1.27E-05,41,53,98,320348,16749545,8573,2766,13685,8326,11056,5185,down
1.54436E+12,0,38,8.35E-06,41,53,98,320348,16749545,8573,2766,13685,8326,11056,5185,down
1.54436E+12,0,3,6.59E-07,41,53,98,320348,16749545,8573,2766,13685,8326,11056,5185,down
1.54436E+12,0,-269,-5.91E-05,41,53,98,320348,16749545,8573,2766,13685,8326,11056,5185,down
1.54436E+12,0,-264,-5.80E-05,41,53,98,320348,16749545,8573,2766,13685,8326,11056,5185,down
1.54436E+12,0,-264,-5.80E-05,41,53,98,320348,16749545,8573,2766,13685,8326,11056,5185,down
1.54436E+12,0,-259,-5.69E-05,41,53,98,320348,16749545,8573,2766,13685,8326,11056,5185,down
1.54436E+12,0,8,1.76E-06,41,53,98,320348,16749545,8573,2766,13685,8326,11056,5185,down
1.54436E+12,0,25,5.49E-06,41,53,98,320348,16749545,8573,2766,13685,8326,11056,5185,down
1.54436E+12,0,26,5.71E-06,41,53,98,320348,16749545,8573,2766,13685,8326,11056,5185,down
1.54436E+12,0,-260,-5.71E-05,41,53,98,320348,16749545,8573,2766,13685,8326,11056,5185,down
1.54436E+12,0,-285,-6.26E-05,41,53,98,320348,16749545,8573,2766,13685,8326,11056,5185,down
1.54436E+12,0,-295,-6.48E-05,41,53,98,320348,16749545,8573,2766,13685,8326,11056,5185,down
1.54436E+12,0,-279,-6.13E-05,41,53,98,320348,16749545,8573,2766,13685,8326,11056,5185,down
1.54436E+12,0,29,6.37E-06,41,53,98,320348,16749545,8573,2766,13685,8326,11056,5185,down
1.54436E+12,0,96,2.11E-05,41,53,98,320348,16749545,8573,2766,13685,8326,11056,5185,down
1.54436E+12,0,99,2.18E-05,41,53,98,320348,16749545,8573,2766,13685,8326,11056,5185,down
1.54436E+12,0,60,1.32E-05,41,53,98,320348,16749545,8573,2766,13685,8326,11056,5185,down
1.54436E+12,0,27,5.93E-06,41,53,98,320348,16749545,8573,2766,13685,8326,11056,5185,down
1.54436E+12,0,16,3.52E-06,41,53,98,320348,16749545,8573,2766,13685,8326,11056,5185,down
1.54436E+12,0,0,0,41,53,98,320348,16749545,8573,2766,13685,8326,11056,5185,down
1.54436E+12,0,-274,-6.02E-05,41,53,98,320348,16749545,8573,2766,13685,8326,11056,5185,down
1.54436E+12,0,-293,-6.44E-05,41,53,98,320348,16749545,8573,2766,13685,8326,11056,5185,down
1.54436E+12,0,-315,-6.92E-05,41,53,98,320348,16749545,8573,2766,13685,8326,11056,5185,down
1.54436E+12,0,-328,-7.21E-05,41,53,98,320348,16749545,8573,2766,13685,8326,11056,5185,down
1.54436E+12,0,-298,-6.55E-05,41,53,98,320348,16749545,8573,2766,13685,8326,11056,5185,down
1.54436E+12,0,17,3.74E-06,41,53,98,320348,16749545,8573,2766,13685,8326,11056,5185,down
1.54436E+12,0,65,1.43E-05,41,53,98,320348,16749545,8573,2766,13685,8326,11056,5185,down
1.54436E+12,0,89,1.96E-05,41,53,98,320348,16749545,8573,2766,13685,8326,11056,5185,down
1.54436E+12,0,92,2.02E-05,41,53,98,320348,16749545,8573,2766,13685,8326,11056,5185,down
1.54436E+12,0,70,1.54E-05,41,53,98,320348,16749545,8573,2766,13685,8326,11056,5185,down
1.54436E+12,0,42,9.23E-06,41,53,98,320348,16749545,8573,2766,13685,8326,11056,5185,down
1.54436E+12,0,48,1.05E-05,41,53,98,320348,16749545,8573,2766,13685,8326,11056,5185,down
1.54436E+12,0,74,1.63E-05,41,53,98,320348,16749545,8573,2766,13685,8326,11056,5185,down
1.54436E+12,0,84,1.85E-05,41,53,98,320348,16749545,8573,2766,13685,8326,11056,5185,down
1.54436E+12,0,49,1.08E-05,41,53,98,320348,16749545,8573,2766,13685,8326,11056,5185,down
1.54436E+12,0,2,4.39E-07,41,53,98,320348,16749545,8573,2766,13685,8326,11056,5185,down
1.54436E+12,0,-275,-6.04E-05,41,53,98,320348,16749545,8573,2766,13685,8326,11056,5185,down
1.54436E+12,0,-269,-5.91E-05,41,53,98,320348,16749545,8573,2766,13685,8326,11056,5185,down
1.54436E+12,0,13,2.86E-06,41,53,98,320348,16749545,8573,2766,13685,8326,11056,5185,down
1.54436E+12,0,24,5.27E-06,41,53,98,320348,16749545,8573,2766,13685,8326,11056,5185,down
1.54436E+12,0,24,5.27E-06,41,53,98,320348,16749545,8573,2766,13685,8326,11056,5185,down
1.54436E+12,0,41,9.01E-06,41,53,98,320348,16749545,8573,2766,13685,8326,11056,5185,down
1.54436E+12,0,36,7.91E-06,41,53,98,320348,16749545,8573,2766,13685,8326,11056,5185,down
1.54436E+12,0,16,3.52E-06,41,53,98,320348,16749545,8573,2766,13685,8326,11056,5185,down
1.54436E+12,0,19,4.17E-06,41,53,98,320348,16749545,8573,2766,13685,8326,11056,5185,down
1.54436E+12,0,23,5.05E-06,41,53,98,320348,16749545,8573,2766,13685,8326,11056,5185,down
1.54436E+12,0,17,3.74E-06,41,53,98,320348,16749545,8573,2766,13685,8326,11056,5185,down
1.54436E+12,0,16,3.52E-06,41,53,98,320348,16749545,8573,2766,13685,8326,11056,5185,down
1.54436E+12,0,20,4.39E-06,41,53,98,320348,16749545,8573,2766,13685,8326,11056,5185,down
1.54436E+12,0,8,1.76E-06,41,53,98,320348,16749545,8573,2766,13685,8326,11056,5185,down
1.54436E+12,0,1,2.20E-07,41,53,98,320348,16749545,8573,2766,13685,8326,11056,5185,down
1.54436E+12,0,-283,-6.22E-05,41,53,98,320348,16749545,8573,2766,13685,8326,11056,5185,down
1.54436E+12,0,-296,-6.50E-05,41,53,98,320348,16749545,8573,2766,13685,8326,11056,5185,down
1.54436E+12,0,-260,-5.71E-05,41,53,98,320348,16749545,8573,2766,13685,8326,11056,5185,down
1.54436E+12,0,33,7.25E-06,41,53,98,320348,16749545,8573,2766,13685,8326,11056,5185,down
1.54436E+12,0,36,7.91E-06,41,53,98,320348,16749545,8573,2766,13685,8326,11056,5185,down
1.54436E+12,0,35,7.69E-06,41,53,98,320348,16749545,8573,2766,13685,8326,11056,5185,down
1.54436E+12,0,40,8.79E-06,41,53,98,320348,16749545,8573,2766,13685,8326,11056,5185,down
1.54436E+12,0,49,1.08E-05,41,53,98,320348,16749545,8573,2766,13685,8326,11056,5185,down
1.54436E+12,0,40,8.79E-06,41,53,98,320348,16749545,8573,2766,13685,8326,11056,5185,down
1.54436E+12,0,24,5.27E-06,41,53,98,320348,16749545,8573,2766,13685,8326,11056,5185,down
1.54436E+12,0,5,1.10E-06,41,53,98,320348,16749545,8573,2766,13685,8326,11056,5185,down
1.54436E+12,0,-281,-6.17E-05,41,53,98,320348,16749545,8573,2766,13685,8326,11056,5185,down
1.54436E+12,0,-317,-6.97E-05,41,53,98,320348,16749545,8573,2766,13685,8326,11056,5185,down
1.54436E+12,0,-310,-6.81E-05,41,53,98,320348,16749545,8573,2766,13685,8326,11056,5185,down
1.54436E+12,0,-278,-6.11E-05,41,53,98,320348,16749545,8573,2766,13685,8326,11056,5185,down
1.54436E+12,0,-262,-5.76E-05,41,53,98,320348,16749545,8573,2766,13685,8326,11056,5185,down
1.54436E+12,0,-267,-5.87E-05,41,53,98,320348,16749545,8573,2766,13685,8326,11056,5185,down
1.54436E+12,0,-267,-5.87E-05,41,53,98,320348,16749545,8573,2766,13685,8326,11056,5185,down
1.54436E+12,0,-274,-6.02E-05,41,53,98,320348,16749545,8573,2766,13685,8326,11056,5185,down
1.54436E+12,0,-285,-6.26E-05,41,53,98,320348,16749545,8573,2766,13685,8326,11056,5185,down
1.54436E+12,0,-276,-6.06E-05,41,53,98,320348,16749545,8573,2766,13685,8326,11056,5185,down
1.54436E+12,0,24,5.27E-06,41,53,98,320348,16749545,8573,2766,13685,8326,11056,5185,down
1.54436E+12,0,91,2.00E-05,41,53,98,320348,16749545,8573,2766,13685,8326,11056,5185,down
1.54436E+12,0,-118,-2.59E-05,41,53,98,320348,16749545,8573,2766,13685,8326,11056,5185,down
1.54436E+12,0,124,2.72E-05,41,53,98,320348,16749545,8573,2766,13685,8326,11056,5185,down
1.54436E+12,0,72,1.58E-05,41,53,98,320348,16749545,8573,2766,13685,8326,11056,5185,down
1.54436E+12,0,20,4.39E-06,41,53,98,320348,16749545,8573,2766,13685,8326,11056,5185,down
1.54436E+12,0,8,1.76E-06,41,53,98,320348,16749545,8573,2766,13685,8326,11056,5185,down
1.54436E+12,0,41,9.01E-06,41,53,98,320348,16749545,8573,2766,13685,8326,11056,5185,down
1.54436E+12,0,61,1.34E-05,41,53,98,320348,16749545,8573,2766,13685,8326,11056,5185,down
1.54436E+12,0,51,1.12E-05,41,53,98,320348,16749545,8573,2766,13685,8326,11056,5185,down
1.54436E+12,0,54,1.19E-05,41,53,98,320348,16749545,8573,2766,13685,8326,11056,5185,down
1.54436E+12,0,71,1.56E-05,41,53,98,320348,16749545,8573,2766,13685,8326,11056,5185,down
1.54436E+12,0,54,1.19E-05,41,53,98,320348,16749545,8573,2766,13685,8326,11056,5185,down
1.54436E+12,0,22,4.83E-06,41,53,98,320348,16749545,8573,2766,13685,8326,11056,5185,down
1.54436E+12,0,12,2.64E-06,41,53,98,320348,16749545,8573,2766,13685,8326,11056,5185,down
1.54436E+12,0,24,5.27E-06,41,53,98,320348,16749545,8573,2766,13685,8326,11056,5185,down
1.54436E+12,0,26,5.71E-06,41,53,98,320348,16749545,8573,2766,13685,8326,11056,5185,down
1.54436E+12,0,33,7.25E-06,41,53,98,320348,16749545,8573,2766,13685,8326,11056,5185,down
1.54436E+12,0,41,9.01E-06,41,53,98,320348,16749545,8573,2766,13685,8326,11056,5185,down
1.54436E+12,0,23,5.05E-06,41,53,98,320348,16749545,8573,2766,13685,8326,11056,5185,down
1.54436E+12,0,-269,-5.91E-05,41,53,98,320348,16749545,8573,2766,13685,8326,11056,5185,down
1.54436E+12,0,-305,-6.70E-05,41,53,98,320348,16749545,8573,2766,13685,8326,11056,5185,down
1.54436E+12,0,-312,-6.86E-05,41,53,98,320348,16749545,8573,2766,13685,8326,11056,5185,down
1.54436E+12,0,-306,-6.72E-05,41,53,98,320348,16749545,8573,2766,13685,8326,11056,5185,down
1.54436E+12,0,-305,-6.70E-05,41,53,98,320348,16749545,8573,2766,13685,8326,11056,5185,down
1.54436E+12,0,-295,-6.48E-05,41,53,98,320348,16749545,8573,2766,13685,8326,11056,5185,down
1.54436E+12,0,-285,-6.26E-05,41,53,98,320348,16749545,8573,2766,13685,8326,11056,5185,down
1.54436E+12,0,-296,-6.50E-05,41,53,98,320348,16749545,8573,2766,13685,8326,11056,5185,down
1.54436E+12,0,-302,-6.64E-05,41,53,98,320348,16749545,8573,2766,13685,8326,11056,5185,down
1.54436E+12,0,-273,-6.00E-05,41,53,98,320348,16749545,8573,2766,13685,8326,11056,5185,down
1.54436E+12,0,9,1.98E-06,41,53,98,320348,16749545,8573,2766,13685,8326,11056,5185,down
1.54436E+12,0,9,1.98E-06,41,53,98,320348,16749545,8573,2766,13685,8326,11056,5185,down
1.54436E+12,0,-260,-5.71E-05,41,53,98,320348,16749545,8573,2766,13685,8326,11056,5185,down
1.54436E+12,0,-278,-6.11E-05,41,53,98,320348,16749545,8573,2766,13685,8326,11056,5185,down
1.54436E+12,0,-292,-6.42E-05,41,53,98,320348,16749545,8573,2766,13685,8326,11056,5185,down
1.54436E+12,0,-280,-6.15E-05,41,53,98,320348,16749545,8573,2766,13685,8326,11056,5185,down
1.54436E+12,0,7,1.54E-06,41,53,98,320348,16749545,8573,2766,13685,8326,11056,5185,down
1.54436E+12,0,7,1.54E-06,41,53,98,320348,16749545,8573,2766,13685,8326,11056,5185,down
1.54436E+12,0,-280,-6.15E-05,41,53,98,320348,16749545,8573,2766,13685,8326,11056,5185,down
1.54436E+12,0,-299,-6.57E-05,41,53,98,320348,16749545,8573,2766,13685,8326,11056,5185,down
1.54436E+12,0,-278,-6.11E-05,41,53,98,320348,16749545,8573,2766,13685,8326,11056,5185,down
1.54436E+12,0,20,4.39E-06,41,53,98,320348,16749545,8573,2766,13685,8326,11056,5185,down
1.54436E+12,0,59,1.30E-05,41,53,98,320348,16749545,8573,2766,13685,8326,11056,5185,down
1.54436E+12,0,89,1.96E-05,41,53,98,320348,16749545,8573,2766,13685,8326,11056,5185,down
1.54436E+12,0,105,2.31E-05,41,53,98,320348,16749545,8573,2766,13685,8326,11056,5185,down
1.54436E+12,0,97,2.13E-05,41,53,98,320348,16749545,8573,2766,13685,8326,11056,5185,down
1.54436E+12,0,87,1.91E-05,41,53,98,320348,16749545,8573,2766,13685,8326,11056,5185,down
1.54436E+12,0,70,1.54E-05,41,53,98,320348,16749545,8573,2766,13685,8326,11056,5185,down
1.54436E+12,0,52,1.14E-05,41,53,98,320348,16749545,8573,2766,13685,8326,11056,5185,down
1.54436E+12,0,45,9.89E-06,41,53,98,320348,16749545,8573,2766,13685,8326,11056,5185,down
1.54436E+12,0,66,1.45E-05,41,53,98,320348,16749545,8573,2766,13685,8326,11056,5185,down
1.54436E+12,0,72,1.58E-05,41,53,98,320348,16749545,8573,2766,13685,8326,11056,5185,down
1.54436E+12,0,26,5.71E-06,41,53,98,320348,16749545,8573,2766,13685,8326,11056,5185,down
1.54436E+12,0,-270,-5.93E-05,41,53,98,320348,16749545,8573,2766,13685,8326,11056,5185,down
1.54436E+12,0,-289,-6.35E-05,41,53,98,320348,16749545,8573,2766,13685,8326,11056,5185,down
1.54436E+12,0,-285,-6.26E-05,41,53,98,320348,16749545,8573,2766,13685,8326,11056,5185,down
1.54436E+12,0,-284,-6.24E-05,41,53,98,320348,16749545,8573,2766,13685,8326,11056,5185,down
1.54436E+12,0,-277,-6.09E-05,41,53,98,320348,16749545,8573,2766,13685,8326,11056,5185,down
1.54436E+12,0,-259,-5.69E-05,41,53,98,320348,16749545,8573,2766,13685,8326,11056,5185,down
1.54436E+12,0,-260,-5.71E-05,41,53,98,320348,16749545,8573,2766,13685,8326,11056,5185,down
1.54436E+12,0,-268,-5.89E-05,41,53,98,320348,16749545,8573,2766,13685,8326,11056,5185,down
1.54436E+12,0,4,8.79E-07,41,53,98,320348,16749545,8573,2766,13685,8326,11056,5185,down
1.54436E+12,0,49,1.08E-05,41,53,98,320348,16749545,8573,2766,13685,8326,11056,5185,down
1.54436E+12,0,73,1.60E-05,41,53,98,320348,16749545,8573,2766,13685,8326,11056,5185,down
1.54436E+12,0,65,1.43E-05,41,53,98,320348,16749545,8573,2766,13685,8326,11056,5185,down
1.54436E+12,0,69,1.52E-05,63,54,98,76408,5586,14105,21458,13318,16749931,18208,6297,down
1.54436E+12,0,88,1.93E-05,63,54,98,76408,5586,14105,21458,13318,16749931,18208,6297,down
1.54436E+12,0,99,2.18E-05,63,54,98,76408,5586,14105,21458,13318,16749931,18208,6297,down
1.54436E+12,0,96,2.11E-05,63,54,98,76408,5586,14105,21458,13318,16749931,18208,6297,down
1.54436E+12,0,70,1.54E-05,63,54,98,76408,5586,14105,21458,13318,16749931,18208,6297,down
1.54436E+12,0,34,7.47E-06,63,54,98,76408,5586,14105,21458,13318,16749931,18208,6297,down
1.54436E+12,0,-258,-5.67E-05,63,54,98,76408,5586,14105,21458,13318,16749931,18208,6297,down
1.54436E+12,0,-264,-5.80E-05,63,54,98,76408,5586,14105,21458,13318,16749931,18208,6297,down
1.54436E+12,0,-266,-5.84E-05,63,54,98,76408,5586,14105,21458,13318,16749931,18208,6297,down
1.54436E+12,0,-282,-6.20E-05,63,54,98,76408,5586,14105,21458,13318,16749931,18208,6297,down
1.54436E+12,0,-285,-6.26E-05,63,54,98,76408,5586,14105,21458,13318,16749931,18208,6297,down
1.54436E+12,0,-285,-6.26E-05,63,54,98,76408,5586,14105,21458,13318,16749931,18208,6297,down
1.54436E+12,0,-285,-6.26E-05,63,54,98,76408,5586,14105,21458,13318,16749931,18208,6297,down
1.54436E+12,0,-257,-5.65E-05,63,54,98,76408,5586,14105,21458,13318,16749931,18208,6297,down
1.54436E+12,0,28,6.15E-06,63,54,98,76408,5586,14105,21458,13318,16749931,18208,6297,down
1.54436E+12,0,28,6.15E-06,63,54,98,76408,5586,14105,21458,13318,16749931,18208,6297,down
1.54436E+12,0,35,7.69E-06,63,54,98,76408,5586,14105,21458,13318,16749931,18208,6297,down
1.54436E+12,0,60,1.32E-05,63,54,98,76408,5586,14105,21458,13318,16749931,18208,6297,down
1.54436E+12,0,67,1.47E-05,63,54,98,76408,5586,14105,21458,13318,16749931,18208,6297,down
1.54436E+12,0,48,1.05E-05,63,54,98,76408,5586,14105,21458,13318,16749931,18208,6297,down
1.54436E+12,0,43,9.45E-06,63,54,98,76408,5586,14105,21458,13318,16749931,18208,6297,down
1.54436E+12,0,56,1.23E-05,63,54,98,76408,5586,14105,21458,13318,16749931,18208,6297,down
1.54436E+12,0,66,1.45E-05,63,54,98,76408,5586,14105,21458,13318,16749931,18208,6297,down
1.54436E+12,0,81,1.78E-05,63,54,98,76408,5586,14105,21458,13318,16749931,18208,6297,down
1.54436E+12,0,97,2.13E-05,63,54,98,76408,5586,14105,21458,13318,16749931,18208,6297,down
1.54436E+12,0,80,1.76E-05,63,54,98,76408,5586,14105,21458,13318,16749931,18208,6297,down
1.54436E+12,0,48,1.05E-05,63,54,98,76408,5586,14105,21458,13318,16749931,18208,6297,down
1.54436E+12,0,43,9.45E-06,63,54,98,76408,5586,14105,21458,13318,16749931,18208,6297,down
1.54436E+12,0,65,1.43E-05,63,54,98,76408,5586,14105,21458,13318,16749931,18208,6297,down
1.54436E+12,0,90,1.98E-05,63,54,98,76408,5586,14105,21458,13318,16749931,18208,6297,down
1.54436E+12,0,117,2.57E-05,63,54,98,76408,5586,14105,21458,13318,16749931,18208,6297,down
1.54436E+12,0,-122,-2.68E-05,63,54,98,76408,5586,14105,21458,13318,16749931,18208,6297,down
1.54436E+12,0,-120,-2.64E-05,63,54,98,76408,5586,14105,21458,13318,16749931,18208,6297,down
1.54436E+12,0,-119,-2.61E-05,63,54,98,76408,5586,14105,21458,13318,16749931,18208,6297,down
1.54436E+12,0,-124,-2.72E-05,63,54,98,76408,5586,14105,21458,13318,16749931,18208,6297,down
1.54436E+12,0,92,2.02E-05,63,54,98,76408,5586,14105,21458,13318,16749931,18208,6297,down
1.54436E+12,0,44,9.67E-06,63,54,98,76408,5586,14105,21458,13318,16749931,18208,6297,down
1.54436E+12,0,40,8.79E-06,63,54,98,76408,5586,14105,21458,13318,16749931,18208,6297,down
1.54436E+12,0,65,1.43E-05,63,54,98,76408,5586,14105,21458,13318,16749931,18208,6297,down
1.54436E+12,0,60,1.32E-05,63,54,98,76408,5586,14105,21458,13318,16749931,18208,6297,down
1.54436E+12,0,27,5.93E-06,63,54,98,76408,5586,14105,21458,13318,16749931,18208,6297,down
1.54436E+12,0,-262,-5.76E-05,63,54,98,76408,5586,14105,21458,13318,16749931,18208,6297,down
1.54436E+12,0,-260,-5.71E-05,63,54,98,76408,5586,14105,21458,13318,16749931,18208,6297,down
1.54436E+12,0,36,7.91E-06,63,54,98,76408,5586,14105,21458,13318,16749931,18208,6297,down
1.54436E+12,0,72,1.58E-05,63,54,98,76408,5586,14105,21458,13318,16749931,18208,6297,down
1.54436E+12,0,74,1.63E-05,63,54,98,76408,5586,14105,21458,13318,16749931,18208,6297,down
1.54436E+12,0,49,1.08E-05,63,54,98,76408,5586,14105,21458,13318,16749931,18208,6297,down
1.54436E+12,0,39,8.57E-06,63,54,98,76408,5586,14105,21458,13318,16749931,18208,6297,down
1.54436E+12,0,50,1.10E-05,63,54,98,76408,5586,14105,21458,13318,16749931,18208,6297,down
1.54436E+12,0,59,1.30E-05,63,54,98,76408,5586,14105,21458,13318,16749931,18208,6297,down
1.54436E+12,0,59,1.30E-05,63,54,98,76408,5586,14105,21458,13318,16749931,18208,6297,down
1.54436E+12,0,41,9.01E-06,63,54,98,76408,5586,14105,21458,13318,16749931,18208,6297,down
1.54436E+12,0,21,4.61E-06,63,54,98,76408,5586,14105,21458,13318,16749931,18208,6297,down
1.54436E+12,0,16,3.52E-06,63,54,98,76408,5586,14105,21458,13318,16749931,18208,6297,down
1.54436E+12,0,21,4.61E-06,63,54,98,76408,5586,14105,21458,13318,16749931,18208,6297,down
1.54436E+12,0,25,5.49E-06,63,54,98,76408,5586,14105,21458,13318,16749931,18208,6297,down
1.54436E+12,0,26,5.71E-06,63,54,98,76408,5586,14105,21458,13318,16749931,18208,6297,down
1.54436E+12,0,6,1.32E-06,63,54,98,76408,5586,14105,21458,13318,16749931,18208,6297,down
1.54436E+12,0,-266,-5.84E-05,63,54,98,76408,5586,14105,21458,13318,16749931,18208,6297,down
1.54436E+12,0,-262,-5.76E-05,63,54,98,76408,5586,14105,21458,13318,16749931,18208,6297,down
1.54436E+12,0,3,6.59E-07,63,54,98,76408,5586,14105,21458,13318,16749931,18208,6297,down
1.54436E+12,0,11,2.42E-06,63,54,98,76408,5586,14105,21458,13318,16749931,18208,6297,down
1.54436E+12,0,7,1.54E-06,63,54,98,76408,5586,14105,21458,13318,16749931,18208,6297,down
1.54436E+12,0,-279,-6.13E-05,63,54,98,76408,5586,14105,21458,13318,16749931,18208,6297,down
1.54436E+12,0,-305,-6.70E-05,63,54,98,76408,5586,14105,21458,13318,16749931,18208,6297,down
1.54436E+12,0,-263,-5.78E-05,63,54,98,76408,5586,14105,21458,13318,16749931,18208,6297,down
1.54436E+12,0,64,1.41E-05,63,54,98,76408,5586,14105,21458,13318,16749931,18208,6297,down
1.54436E+12,0,108,2.37E-05,63,54,98,76408,5586,14105,21458,13318,16749931,18208,6297,down
1.54436E+12,0,124,2.72E-05,63,54,98,76408,5586,14105,21458,13318,16749931,18208,6297,down
1.54436E+12,0,101,2.22E-05,63,54,98,76408,5586,14105,21458,13318,16749931,18208,6297,down
1.54436E+12,0,85,1.87E-05,63,54,98,76408,5586,14105,21458,13318,16749931,18208,6297,down
1.54436E+12,0,104,2.29E-05,63,54,98,76408,5586,14105,21458,13318,16749931,18208,6297,down
1.54436E+12,0,-126,-2.77E-05,63,54,98,76408,5586,14105,21458,13318,16749931,18208,6297,down
1.54436E+12,0,119,2.61E-05,63,54,98,76408,5586,14105,21458,13318,16749931,18208,6297,down
1.54436E+12,0,85,1.87E-05,63,54,98,76408,5586,14105,21458,13318,16749931,18208,6297,down
1.54436E+12,0,57,1.25E-05,63,54,98,76408,5586,14105,21458,13318,16749931,18208,6297,down
1.54436E+12,0,50,1.10E-05,63,54,98,76408,5586,14105,21458,13318,16749931,18208,6297,down
1.54436E+12,0,35,7.69E-06,63,54,98,76408,5586,14105,21458,13318,16749931,18208,6297,down
1.54436E+12,0,17,3.74E-06,63,54,98,76408,5586,14105,21458,13318,16749931,18208,6297,down
1.54436E+12,0,19,4.17E-06,63,54,98,76408,5586,14105,21458,13318,16749931,18208,6297,down
1.54436E+12,0,26,5.71E-06,63,54,98,76408,5586,14105,21458,13318,16749931,18208,6297,down
1.54436E+12,0,33,7.25E-06,63,54,98,76408,5586,14105,21458,13318,16749931,18208,6297,down
1.54436E+12,0,38,8.35E-06,63,54,98,76408,5586,14105,21458,13318,16749931,18208,6297,down
1.54436E+12,0,45,9.89E-06,63,54,98,76408,5586,14105,21458,13318,16749931,18208,6297,down
1.54436E+12,0,51,1.12E-05,63,54,98,76408,5586,14105,21458,13318,16749931,18208,6297,down
1.54436E+12,0,43,9.45E-06,63,54,98,76408,5586,14105,21458,13318,16749931,18208,6297,down
1.54436E+12,0,20,4.39E-06,63,54,98,76408,5586,14105,21458,13318,16749931,18208,6297,down
1.54436E+12,0,6,1.32E-06,63,54,98,76408,5586,14105,21458,13318,16749931,18208,6297,down
1.54436E+12,0,8,1.76E-06,63,54,98,76408,5586,14105,21458,13318,16749931,18208,6297,down
1.54436E+12,0,25,5.49E-06,63,54,98,76408,5586,14105,21458,13318,16749931,18208,6297,down
1.54436E+12,0,33,7.25E-06,63,54,98,76408,5586,14105,21458,13318,16749931,18208,6297,down
1.54436E+12,0,-261,-5.73E-05,63,54,98,76408,5586,14105,21458,13318,16749931,18208,6297,down
1.54436E+12,0,-317,-6.97E-05,63,54,98,76408,5586,14105,21458,13318,16749931,18208,6297,down
1.54436E+12,0,-340,-7.47E-05,63,54,98,76408,5586,14105,21458,13318,16749931,18208,6297,down
1.54436E+12,0,-294,-6.46E-05,63,54,98,76408,5586,14105,21458,13318,16749931,18208,6297,down
1.54436E+12,0,23,5.05E-06,63,54,98,76408,5586,14105,21458,13318,16749931,18208,6297,down
1.54436E+12,0,55,1.21E-05,63,54,98,76408,5586,14105,21458,13318,16749931,18208,6297,down
1.54436E+12,0,69,1.52E-05,63,54,98,76408,5586,14105,21458,13318,16749931,18208,6297,down
1.54436E+12,0,70,1.54E-05,63,54,98,76408,5586,14105,21458,13318,16749931,18208,6297,down
1.54436E+12,0,55,1.21E-05,63,54,98,76408,5586,14105,21458,13318,16749931,18208,6297,down
1.54436E+12,0,59,1.30E-05,63,54,98,76408,5586,14105,21458,13318,16749931,18208,6297,down
1.54436E+12,0,85,1.87E-05,63,54,98,76408,5586,14105,21458,13318,16749931,18208,6297,down
1.54436E+12,0,115,2.53E-05,63,54,98,76408,5586,14105,21458,13318,16749931,18208,6297,down
1.54436E+12,0,113,2.48E-05,63,54,98,76408,5586,14105,21458,13318,16749931,18208,6297,down
1.54436E+12,0,69,1.52E-05,63,54,98,76408,5586,14105,21458,13318,16749931,18208,6297,down
1.54436E+12,0,33,7.25E-06,63,54,98,76408,5586,14105,21458,13318,16749931,18208,6297,down
1.54436E+12,0,26,5.71E-06,63,54,98,76408,5586,14105,21458,13318,16749931,18208,6297,down
1.54436E+12,0,13,2.86E-06,63,54,98,76408,5586,14105,21458,13318,16749931,18208,6297,down
1.54436E+12,0,2,4.39E-07,63,54,98,76408,5586,14105,21458,13318,16749931,18208,6297,down
1.54436E+12,0,22,4.83E-06,63,54,98,76408,5586,14105,21458,13318,16749931,18208,6297,down
1.54436E+12,0,60,1.32E-05,63,54,98,76408,5586,14105,21458,13318,16749931,18208,6297,down
1.54436E+12,0,103,2.26E-05,63,54,98,76408,5586,14105,21458,13318,16749931,18208,6297,down
1.54436E+12,0,-127,-2.79E-05,63,54,98,76408,5586,14105,21458,13318,16749931,18208,6297,down
1.54436E+12,0,-124,-2.72E-05,63,54,98,76408,5586,14105,21458,13318,16749931,18208,6297,down
1.54436E+12,0,-128,-2.81E-05,63,54,98,76408,5586,14105,21458,13318,16749931,18208,6297,down
1.54436E+12,0,116,2.55E-05,63,54,98,76408,5586,14105,21458,13318,16749931,18208,6297,down
1.54436E+12,0,116,2.55E-05,63,54,98,76408,5586,14105,21458,13318,16749931,18208,6297,down
1.54436E+12,0,113,2.48E-05,63,54,98,76408,5586,14105,21458,13318,16749931,18208,6297,down
1.54436E+12,0,100,2.20E-05,63,54,98,76408,5586,14105,21458,13318,16749931,18208,6297,down
1.54436E+12,0,82,1.80E-05,63,54,98,76408,5586,14105,21458,13318,16749931,18208,6297,down
1.54436E+12,0,50,1.10E-05,63,54,98,76408,5586,14105,21458,13318,16749931,18208,6297,down
1.54436E+12,0,12,2.64E-06,63,54,98,76408,5586,14105,21458,13318,16749931,18208,6297,down
1.54436E+12,0,-275,-6.04E-05,63,54,98,76408,5586,14105,21458,13318,16749931,18208,6297,down
1.54436E+12,0,-270,-5.93E-05,63,54,98,76408,5586,14105,21458,13318,16749931,18208,6297,down
1.54436E+12,0,10,2.20E-06,63,54,98,76408,5586,14105,21458,13318,16749931,18208,6297,down
1.54436E+12,0,12,2.64E-06,63,54,98,76408,5586,14105,21458,13318,16749931,18208,6297,down
1.54436E+12,0,-273,-6.00E-05,63,54,98,76408,5586,14105,21458,13318,16749931,18208,6297,down
1.54436E+12,0,-294,-6.46E-05,63,54,98,76408,5586,14105,21458,13318,16749931,18208,6297,down
1.54436E+12,0,-275,-6.04E-05,63,54,98,76408,5586,14105,21458,13318,16749931,18208,6297,down
1.54436E+12,0,21,4.61E-06,63,54,98,76408,5586,14105,21458,13318,16749931,18208,6297,down
1.54436E+12,0,60,1.32E-05,63,54,98,76408,5586,14105,21458,13318,16749931,18208,6297,down
1.54436E+12,0,100,2.20E-05,63,54,98,76408,5586,14105,21458,13318,16749931,18208,6297,down
1.54436E+12,0,118,2.59E-05,63,54,98,76408,5586,14105,21458,13318,16749931,18208,6297,down
1.54436E+12,0,108,2.37E-05,63,54,98,76408,5586,14105,21458,13318,16749931,18208,6297,down
1.54436E+12,0,85,1.87E-05,63,54,98,76408,5586,14105,21458,13318,16749931,18208,6297,down
1.54436E+12,0,58,1.27E-05,63,54,98,76408,5586,14105,21458,13318,16749931,18208,6297,down
1.54436E+12,0,52,1.14E-05,63,54,98,76408,5586,14105,21458,13318,16749931,18208,6297,down
1.54436E+12,0,71,1.56E-05,63,54,98,76408,5586,14105,21458,13318,16749931,18208,6297,down
1.54436E+12,0,88,1.93E-05,63,54,98,76408,5586,14105,21458,13318,16749931,18208,6297,down
1.54436E+12,0,73,1.60E-05,63,54,98,76408,5586,14105,21458,13318,16749931,18208,6297,down
1.54436E+12,0,32,7.03E-06,63,54,98,76408,5586,14105,21458,13318,16749931,18208,6297,down
1.54436E+12,0,2,4.39E-07,63,54,98,76408,5586,14105,21458,13318,16749931,18208,6297,down
1.54436E+12,0,-257,-5.65E-05,63,54,98,76408,5586,14105,21458,13318,16749931,18208,6297,down
1.54436E+12,0,-273,-6.00E-05,63,54,98,76408,5586,14105,21458,13318,16749931,18208,6297,down
1.54436E+12,0,-299,-6.57E-05,63,54,98,76408,5586,14105,21458,13318,16749931,18208,6297,down
1.54436E+12,0,-297,-6.53E-05,63,54,98,76408,5586,14105,21458,13318,16749931,18208,6297,down
1.54436E+12,0,-268,-5.89E-05,63,54,98,76408,5586,14105,21458,13318,16749931,18208,6297,down
1.54436E+12,0,12,2.64E-06,63,54,98,76408,5586,14105,21458,13318,16749931,18208,6297,down
1.54436E+12,0,28,6.15E-06,63,54,98,76408,5586,14105,21458,13318,16749931,18208,6297,down
1.54436E+12,0,35,7.69E-06,63,54,98,76408,5586,14105,21458,13318,16749931,18208,6297,down
1.54436E+12,0,36,7.91E-06,63,54,98,76408,5586,14105,21458,13318,16749931,18208,6297,down
1.54436E+12,0,26,5.71E-06,63,54,98,76408,5586,14105,21458,13318,16749931,18208,6297,down
1.54436E+12,0,19,4.17E-06,63,54,98,76408,5586,14105,21458,13318,16749931,18208,6297,down
1.54436E+12,0,28,6.15E-06,63,54,98,76408,5586,14105,21458,13318,16749931,18208,6297,down
1.54436E+12,0,40,8.79E-06,63,54,98,76408,5586,14105,21458,13318,16749931,18208,6297,down
1.54436E+12,0,50,1.10E-05,63,54,98,76408,5586,14105,21458,13318,16749931,18208,6297,down
1.54436E+12,0,44,9.67E-06,63,54,98,76408,5586,14105,21458,13318,16749931,18208,6297,down
1.54436E+12,0,26,5.71E-06,63,54,98,76408,5586,14105,21458,13318,16749931,18208,6297,down
1.54436E+12,0,16,3.52E-06,63,54,98,76408,5586,14105,21458,13318,16749931,18208,6297,down
1.54436E+12,0,22,4.83E-06,63,54,98,76408,5586,14105,21458,13318,16749931,18208,6297,down
1.54436E+12,0,12,2.64E-06,63,54,98,76408,5586,14105,21458,13318,16749931,18208,6297,down
1.54436E+12,0,0,0,63,54,98,76408,5586,14105,21458,13318,16749931,18208,6297,down
1.54436E+12,0,21,4.61E-06,63,54,98,76408,5586,14105,21458,13318,16749931,18208,6297,down
1.54436E+12,0,48,1.05E-05,63,54,98,76408,5586,14105,21458,13318,16749931,18208,6297,down
1.54436E+12,0,36,7.91E-06,63,54,98,76408,5586,14105,21458,13318,16749931,18208,6297,down
1.54436E+12,0,-264,-5.80E-05,63,54,98,76408,5586,14105,21458,13318,16749931,18208,6297,down
1.54436E+12,0,-277,-6.09E-05,63,54,98,76408,5586,14105,21458,13318,16749931,18208,6297,down
1.54436E+12,0,-264,-5.80E-05,63,54,98,76408,5586,14105,21458,13318,16749931,18208,6297,down
1.54436E+12,0,-280,-6.15E-05,63,54,98,76408,5586,14105,21458,13318,16749931,18208,6297,down
1.54436E+12,0,-312,-6.86E-05,63,54,98,76408,5586,14105,21458,13318,16749931,18208,6297,down
1.54436E+12,0,-290,-6.37E-05,63,54,98,76408,5586,14105,21458,13318,16749931,18208,6297,down
1.54436E+12,0,32,7.03E-06,63,54,98,76408,5586,14105,21458,13318,16749931,18208,6297,down
1.54436E+12,0,53,1.16E-05,63,54,98,76408,5586,14105,21458,13318,16749931,18208,6297,down
1.54436E+12,0,41,9.01E-06,63,54,98,76408,5586,14105,21458,13318,16749931,18208,6297,down
1.54436E+12,0,48,1.05E-05,63,54,98,76408,5586,14105,21458,13318,16749931,18208,6297,down
1.54436E+12,0,70,1.54E-05,63,54,98,76408,5586,14105,21458,13318,16749931,18208,6297,down
1.54436E+12,0,81,1.78E-05,63,54,98,76408,5586,14105,21458,13318,16749931,18208,6297,down
1.54436E+12,0,52,1.14E-05,63,54,98,76408,5586,14105,21458,13318,16749931,18208,6297,down
1.54436E+12,0,23,5.05E-06,63,54,98,76408,5586,14105,21458,13318,16749931,18208,6297,down
1.54436E+12,0,19,4.17E-06,63,54,98,76408,5586,14105,21458,13318,16749931,18208,6297,down
1.54436E+12,0,35,7.69E-06,63,54,98,76408,5586,14105,21458,13318,16749931,18208,6297,down
1.54436E+12,0,24,5.27E-06,63,54,98,76408,5586,14105,21458,13318,16749931,18208,6297,down
1.54436E+12,0,-280,-6.15E-05,63,54,98,76408,5586,14105,21458,13318,16749931,18208,6297,down
