timestampMs,poorSignal,eegRawValue,eegRawValueVolts,attention,meditation,blinkStrength,delta,theta,alphaLow,alphaHigh,betaLow,betaHigh,gammaLow,gammaMid,tagEvent,location
1544369936468,0,7,1.5380859375E-6,38,47,40,20731,17951,5534,30346,12011,6195,2643,3327,Tag0,unknown
1544369936478,0,20,4.39453125E-6,38,47,40,20731,17951,5534,30346,12011,6195,2643,3327,Tag0,unknown
1544369936478,0,26,5.712890625E-6,38,47,40,20731,17951,5534,30346,12011,6195,2643,3327,Tag0,unknown
1544369936479,0,1,2.197265625E-7,38,47,40,20731,17951,5534,30346,12011,6195,2643,3327,Tag0,unknown
1544369936479,0,-283,-6.218261718750001E-5,38,47,40,20731,17951,5534,30346,12011,6195,2643,3327,Tag0,unknown
1544369936479,0,-265,-5.82275390625E-5,38,47,40,20731,17951,5534,30346,12011,6195,2643,3327,Tag0,unknown
1544369936479,0,8,1.7578125E-6,38,47,40,20731,17951,5534,30346,12011,6195,2643,3327,Tag0,unknown
1544369936479,0,4,8.7890625E-7,38,47,40,20731,17951,5534,30346,12011,6195,2643,3327,Tag0,unknown
1544369936479,0,10,2.197265625E-6,38,47,40,20731,17951,5534,30346,12011,6195,2643,3327,Tag0,unknown
1544369936479,0,25,5.4931640625E-6,38,47,40,20731,17951,5534,30346,12011,6195,2643,3327,Tag0,unknown
1544369936480,0,27,5.9326171875000005E-6,38,47,40,20731,17951,5534,30346,12011,6195,2643,3327,Tag0,unknown
1544369936480,0,29,6.3720703125E-6,38,47,40,20731,17951,5534,30346,12011,6195,2643,3327,Tag0,unknown
1544369936480,0,53,1.1645507812500002E-5,38,47,40,20731,17951,5534,30346,12011,6195,2643,3327,Tag0,unknown
1544369936480,0,76,1.669921875E-5,38,47,40,20731,17951,5534,30346,12011,6195,2643,3327,Tag0,unknown
1544369936480,0,85,1.86767578125E-5,38,47,40,20731,17951,5534,30346,12011,6195,2643,3327,Tag0,unknown
1544369936480,0,85,1.86767578125E-5,38,47,40,20731,17951,5534,30346,12011,6195,2643,3327,Tag0,unknown
1544369936480,0,72,1.58203125E-5,38,47,40,20731,17951,5534,30346,12011,6195,2643,3327,Tag0,unknown
1544369936481,0,64,1.40625E-5,38,47,40,20731,17951,5534,30346,12011,6195,2643,3327,Tag0,unknown
1544369936481,0,85,1.86767578125E-5,38,47,40,20731,17951,5534,30346,12011,6195,2643,3327,Tag0,unknown
1544369936481,0,116,2.548828125E-5,38,47,40,20731,17951,5534,30346,12011,6195,2643,3327,Tag0,unknown
1544369936481,0,118,2.5927734375E-5,38,47,40,20731,17951,5534,30346,12011,6195,2643,3327,Tag0,unknown
1544369936481,0,108,2.3730468750000002E-5,38,47,40,20731,17951,5534,30346,12011,6195,2643,3327,Tag0,unknown
1544369936481,0,125,2.74658203125E-5,38,47,40,20731,17951,5534,30346,12011,6195,2643,3327,Tag0,unknown
1544369936481,0,-121,-2.6586914062500003E-5,38,47,40,20731,17951,5534,30346,12011,6195,2643,3327,Tag0,unknown
1544369936482,0,-124,-2.724609375E-5,38,47,40,20731,17951,5534,30346,12011,6195,2643,3327,Tag0,unknown
1544369936482,0,-107,-2.35107421875E-5,38,47,40,20731,17951,5534,30346,12011,6195,2643,3327,Tag0,unknown
1544369936482,0,-91,-1.99951171875E-5,38,47,40,20731,17951,5534,30346,12011,6195,2643,3327,Tag0,unknown
1544369936482,0,-100,-2.197265625E-5,38,47,40,20731,17951,5534,30346,12011,6195,2643,3327,Tag0,unknown
1544369936482,0,-92,-2.021484375E-5,38,47,40,20731,17951,5534,30346,12011,6195,2643,3327,Tag0,unknown
1544369936482,0,-63,-1.38427734375E-5,38,47,40,20731,17951,5534,30346,12011,6195,2643,3327,Tag0,unknown
1544369936483,0,-51,-1.1206054687499999E-5,38,47,40,20731,17951,5534,30346,12011,6195,2643,3327,Tag0,unknown
1544369936483,0,-44,-9.66796875E-6,38,47,40,20731,17951,5534,30346,12011,6195,2643,3327,Tag0,unknown
1544369936483,0,-27,-5.9326171875000005E-6,38,47,40,20731,17951,5534,30346,12011,6195,2643,3327,Tag0,unknown
1544369936483,0,-28,-6.15234375E-6,38,47,40,20731,17951,5534,30346,12011,6195,2643,3327,Tag0,unknown
1544369936484,0,-55,-1.20849609375E-5,38,47,40,20731,17951,5534,30346,12011,6195,2643,3327,Tag0,unknown
1544369936484,0,-61,-1.34033203125E-5,38,47,40,20731,17951,5534,30346,12011,6195,2643,3327,Tag0,unknown
1544369936484,0,-45,-9.8876953125E-6,38,47,40,20731,17951,5534,30346,12011,6195,2643,3327,Tag0,unknown
1544369936484,0,-46,-1.0107421875E-5,38,47,40,20731,17951,5534,30346,12011,6195,2643,3327,Tag0,unknown
1544369936484,0,-46,-1.0107421875E-5,38,47,40,20731,17951,5534,30346,12011,6195,2643,3327,Tag0,unknown
1544369936485,0,-16,-3.515625E-6,38,47,40,20731,17951,5534,30346,12011,6195,2643,3327,Tag0,unknown
1544369936485,0,266,5.8447265625E-5,38,47,40,20731,17951,5534,30346,12011,6195,2643,3327,Tag0,unknown
1544369936485,0,272,5.9765625000000004E-5,38,47,40,20731,17951,5534,30346,12011,6195,2643,3327,Tag0,unknown
1544369936485,0,265,5.82275390625E-5,38,47,40,20731,17951,5534,30346,12011,6195,2643,3327,Tag0,unknown
1544369936485,0,-3,-6.591796875E-7,38,47,40,20731,17951,5534,30346,12011,6195,2643,3327,Tag0,unknown
1544369936486,0,-22,-4.833984375E-6,38,47,36,20731,17951,5534,30346,12011,6195,2643,3327,Tag0,unknown
1544369936486,0,-28,-6.15234375E-6,38,47,36,20731,17951,5534,30346,12011,6195,2643,3327,Tag0,unknown
1544369936495,0,-11,-2.4169921875E-6,38,47,36,20731,17951,5534,30346,12011,6195,2643,3327,Tag0,unknown
1544369936495,0,-5,-1.0986328125E-6,38,47,36,20731,17951,5534,30346,12011,6195,2643,3327,Tag0,unknown
1544369936496,0,-15,-3.2958984375E-6,38,47,36,20731,17951,5534,30346,12011,6195,2643,3327,Tag0,unknown
1544369936496,0,-27,-5.9326171875000005E-6,38,47,36,20731,17951,5534,30346,12011,6195,2643,3327,Tag0,unknown
1544369936496,0,-42,-9.228515625000002E-6,38,47,36,20731,17951,5534,30346,12011,6195,2643,3327,Tag0,unknown
1544369936496,0,-80,-1.7578125E-5,38,47,36,20731,17951,5534,30346,12011,6195,2643,3327,Tag0,unknown
1544369936496,0,-116,-2.548828125E-5,38,47,36,20731,17951,5534,30346,12011,6195,2643,3327,Tag0,unknown
1544369936496,0,-112,-2.4609375E-5,38,47,36,20731,17951,5534,30346,12011,6195,2643,3327,Tag0,unknown
1544369936496,0,-90,-1.9775390625E-5,38,47,36,20731,17951,5534,30346,12011,6195,2643,3327,Tag0,unknown
1544369936497,0,-79,-1.7358398437500003E-5,38,47,36,20731,17951,5534,30346,12011,6195,2643,3327,Tag0,unknown
1544369936497,0,-92,-2.021484375E-5,38,47,36,20731,17951,5534,30346,12011,6195,2643,3327,Tag0,unknown
1544369936497,0,-125,-2.74658203125E-5,38,47,36,20731,17951,5534,30346,12011,6195,2643,3327,Tag0,unknown
1544369936497,0,91,1.99951171875E-5,38,47,36,20731,17951,5534,30346,12011,6195,2643,3327,Tag0,unknown
1544369936497,0,82,1.8017578124999998E-5,38,47,36,20731,17951,5534,30346,12011,6195,2643,3327,Tag0,unknown
1544369936497,0,86,1.8896484375000003E-5,38,47,36,20731,17951,5534,30346,12011,6195,2643,3327,Tag0,unknown
1544369936497,0,72,1.58203125E-5,38,47,36,20731,17951,5534,30346,12011,6195,2643,3327,Tag0,unknown
1544369936497,0,53,1.1645507812500002E-5,38,47,36,20731,17951,5534,30346,12011,6195,2643,3327,Tag0,unknown
1544369936497,0,36,7.91015625E-6,38,47,36,20731,17951,5534,30346,12011,6195,2643,3327,Tag0,unknown
1544369936497,0,0,0.0,38,47,36,20731,17951,5534,30346,12011,6195,2643,3327,Tag0,unknown
1544369936497,0,-296,-6.50390625E-5,38,47,36,20731,17951,5534,30346,12011,6195,2643,3327,Tag0,unknown
1544369936497,0,-317,-6.96533203125E-5,38,47,36,20731,17951,5534,30346,12011,6195,2643,3327,Tag0,unknown
1544369936498,0,-326,-7.163085937500001E-5,38,47,36,20731,17951,5534,30346,12011,6195,2643,3327,Tag0,unknown
1544369936498,0,-347,-7.62451171875E-5,38,47,36,20731,17951,5534,30346,12011,6195,2643,3327,Tag0,unknown
1544369936498,0,-372,-8.173828125E-5,38,47,36,20731,17951,5534,30346,12011,6195,2643,3327,Tag0,unknown
1544369936498,0,-375,-8.23974609375E-5,38,47,36,20731,17951,5534,30346,12011,6195,2643,3327,Tag0,unknown
1544369936498,0,-362,-7.954101562500001E-5,38,47,36,20731,17951,5534,30346,12011,6195,2643,3327,Tag0,unknown
1544369936498,0,-355,-7.80029296875E-5,38,47,36,20731,17951,5534,30346,12011,6195,2643,3327,Tag0,unknown
1544369936498,0,-354,-7.778320312500001E-5,38,47,36,20731,17951,5534,30346,12011,6195,2643,3327,Tag0,unknown
1544369936498,0,-366,-8.0419921875E-5,38,47,36,20731,17951,5534,30346,12011,6195,2643,3327,Tag0,unknown
1544369936498,0,-139,-3.0541992187500004E-5,38,47,36,20731,17951,5534,30346,12011,6195,2643,3327,Tag0,unknown
1544369936498,0,-165,-3.62548828125E-5,38,47,36,20731,17951,5534,30346,12011,6195,2643,3327,Tag0,unknown
1544369936498,0,-172,-3.7792968750000005E-5,38,47,36,20731,17951,5534,30346,12011,6195,2643,3327,Tag0,unknown
1544369936499,0,-188,-4.1308593750000004E-5,38,47,36,20731,17951,5534,30346,12011,6195,2643,3327,Tag0,unknown
1544369936499,0,-203,-4.460449218750001E-5,38,47,36,20731,17951,5534,30346,12011,6195,2643,3327,Tag0,unknown
1544369936499,0,-198,-4.3505859375000006E-5,38,47,36,20731,17951,5534,30346,12011,6195,2643,3327,Tag0,unknown
1544369936499,0,-202,-4.4384765625000004E-5,38,47,36,20731,17951,5534,30346,12011,6195,2643,3327,Tag0,unknown
1544369936499,0,-219,-4.81201171875E-5,38,47,36,20731,17951,5534,30346,12011,6195,2643,3327,Tag0,unknown
1544369936499,0,-220,-4.833984375E-5,38,47,36,20731,17951,5534,30346,12011,6195,2643,3327,Tag0,unknown
1544369936499,0,-215,-4.72412109375E-5,38,47,36,20731,17951,5534,30346,12011,6195,2643,3327,Tag0,unknown
1544369936499,0,-231,-5.07568359375E-5,38,47,36,20731,17951,5534,30346,12011,6195,2643,3327,Tag0,unknown
1544369936499,0,-231,-5.07568359375E-5,38,47,36,20731,17951,5534,30346,12011,6195,2643,3327,Tag0,unknown
1544369936499,0,-190,-4.1748046875E-5,38,47,36,20731,17951,5534,30346,12011,6195,2643,3327,Tag0,unknown
1544369936557,0,-162,-3.5595703125E-5,38,47,36,20731,17951,5534,30346,12011,6195,2643,3327,Tag0,unknown
1544369936557,0,-165,-3.62548828125E-5,38,47,36,20731,17951,5534,30346,12011,6195,2643,3327,Tag0,unknown
1544369936557,0,-167,-3.6694335937500004E-5,38,47,36,20731,17951,5534,30346,12011,6195,2643,3327,Tag0,unknown
1544369936562,0,-167,-3.6694335937500004E-5,38,47,36,20731,17951,5534,30346,12011,6195,2643,3327,Tag0,unknown
1544369936562,0,-172,-3.7792968750000005E-5,38,47,36,20731,17951,5534,30346,12011,6195,2643,3327,Tag0,unknown
1544369936562,0,-168,-3.691406250000001E-5,38,47,36,20731,17951,5534,30346,12011,6195,2643,3327,Tag0,unknown
1544369936562,0,-162,-3.5595703125E-5,38,47,36,20731,17951,5534,30346,12011,6195,2643,3327,Tag0,unknown
1544369936562,0,-180,-3.955078125E-5,38,47,36,20731,17951,5534,30346,12011,6195,2643,3327,Tag0,unknown
1544369936562,0,-209,-4.59228515625E-5,38,47,36,20731,17951,5534,30346,12011,6195,2643,3327,Tag0,unknown
1544369936562,0,-219,-4.81201171875E-5,38,47,36,20731,17951,5534,30346,12011,6195,2643,3327,Tag0,unknown
1544369936562,0,-225,-4.94384765625E-5,38,47,36,20731,17951,5534,30346,12011,6195,2643,3327,Tag0,unknown
1544369936562,0,-216,-4.7460937500000004E-5,38,47,36,20731,17951,5534,30346,12011,6195,2643,3327,Tag0,unknown
1544369936562,0,-203,-4.460449218750001E-5,38,47,36,20731,17951,5534,30346,12011,6195,2643,3327,Tag0,unknown
1544369936562,0,-189,-4.15283203125E-5,38,47,36,20731,17951,5534,30346,12011,6195,2643,3327,Tag0,unknown
1544369936563,0,-167,-3.6694335937500004E-5,38,47,36,20731,17951,5534,30346,12011,6195,2643,3327,Tag0,unknown
1544369936563,0,-129,-2.8344726562500002E-5,38,47,36,20731,17951,5534,30346,12011,6195,2643,3327,Tag0,unknown
1544369936563,0,-338,-7.426757812499999E-5,38,47,36,20731,17951,5534,30346,12011,6195,2643,3327,Tag0,unknown
1544369936563,0,-316,-6.943359375000001E-5,38,47,36,20731,17951,5534,30346,12011,6195,2643,3327,Tag0,unknown
1544369936563,0,-311,-6.833496093750001E-5,38,47,36,20731,17951,5534,30346,12011,6195,2643,3327,Tag0,unknown
1544369936563,0,-296,-6.50390625E-5,38,47,36,20731,17951,5534,30346,12011,6195,2643,3327,Tag0,unknown
1544369936563,0,-289,-6.35009765625E-5,38,47,36,20731,17951,5534,30346,12011,6195,2643,3327,Tag0,unknown
1544369936563,0,-297,-6.525878906250001E-5,38,47,36,20731,17951,5534,30346,12011,6195,2643,3327,Tag0,unknown
1544369936579,0,-301,-6.613769531250001E-5,38,47,36,20731,17951,5534,30346,12011,6195,2643,3327,Tag0,unknown
1544369936579,0,-292,-6.416015625000001E-5,38,47,36,20731,17951,5534,30346,12011,6195,2643,3327,Tag0,unknown
1544369936579,0,-301,-6.613769531250001E-5,38,47,36,20731,17951,5534,30346,12011,6195,2643,3327,Tag0,unknown
1544369936580,0,-324,-7.119140625E-5,20,38,36,97950,16763872,9362,3931,2511,2751,2294,685,Tag0,unknown
1544369936581,0,-330,-7.2509765625E-5,20,38,36,97950,16763872,9362,3931,2511,2751,2294,685,Tag0,unknown
1544369936581,0,-344,-7.558593750000001E-5,20,38,36,97950,16763872,9362,3931,2511,2751,2294,685,Tag0,unknown
1544369936581,0,-362,-7.954101562500001E-5,20,38,36,97950,16763872,9362,3931,2511,2751,2294,685,Tag0,unknown
1544369936581,0,-349,-7.668457031250001E-5,20,38,36,97950,16763872,9362,3931,2511,2751,2294,685,Tag0,unknown
1544369936581,0,-323,-7.09716796875E-5,20,38,36,97950,16763872,9362,3931,2511,2751,2294,685,Tag0,unknown
1544369936581,0,-323,-7.09716796875E-5,20,38,36,97950,16763872,9362,3931,2511,2751,2294,685,Tag0,unknown
1544369936581,0,-332,-7.294921875E-5,20,38,36,97950,16763872,9362,3931,2511,2751,2294,685,Tag0,unknown
1544369936581,0,-313,-6.87744140625E-5,20,38,36,97950,16763872,9362,3931,2511,2751,2294,685,Tag0,unknown
1544369936581,0,-277,-6.0864257812500005E-5,20,38,36,97950,16763872,9362,3931,2511,2751,2294,685,Tag0,unknown
1544369936581,0,-257,-5.64697265625E-5,20,38,36,97950,16763872,9362,3931,2511,2751,2294,685,Tag0,unknown
1544369936581,0,21,4.614257812500001E-6,20,38,36,97950,16763872,9362,3931,2511,2751,2294,685,Tag0,unknown
1544369936582,0,26,5.712890625E-6,20,38,36,97950,16763872,9362,3931,2511,2751,2294,685,Tag0,unknown
1544369936582,0,-259,-5.69091796875E-5,20,38,36,97950,16763872,9362,3931,2511,2751,2294,685,Tag0,unknown
1544369936582,0,-286,-6.2841796875E-5,20,38,36,97950,16763872,9362,3931,2511,2751,2294,685,Tag0,unknown
1544369936582,0,-284,-6.240234375E-5,20,38,36,97950,16763872,9362,3931,2511,2751,2294,685,Tag0,unknown
1544369936582,0,-284,-6.240234375E-5,20,38,36,97950,16763872,9362,3931,2511,2751,2294,685,Tag0,unknown
1544369936582,0,-298,-6.5478515625E-5,20,38,36,97950,16763872,9362,3931,2511,2751,2294,685,Tag0,unknown
1544369936582,0,-307,-6.74560546875E-5,20,38,36,97950,16763872,9362,3931,2511,2751,2294,685,Tag0,unknown
1544369936582,0,-301,-6.613769531250001E-5,20,38,36,97950,16763872,9362,3931,2511,2751,2294,685,Tag0,unknown
1544369936582,0,-296,-6.50390625E-5,20,38,36,97950,16763872,9362,3931,2511,2751,2294,685,Tag0,unknown
1544369936582,0,-267,-5.86669921875E-5,20,38,36,97950,16763872,9362,3931,2511,2751,2294,685,Tag0,unknown
1544369936583,0,11,2.4169921875E-6,20,38,36,97950,16763872,9362,3931,2511,2751,2294,685,Tag0,unknown
1544369936583,0,1,2.197265625E-7,20,38,36,97950,16763872,9362,3931,2511,2751,2294,685,Tag0,unknown
1544369936635,0,-275,-6.04248046875E-5,20,38,36,97950,16763872,9362,3931,2511,2751,2294,685,Tag0,unknown
1544369936646,0,1,2.197265625E-7,20,38,36,97950,16763872,9362,3931,2511,2751,2294,685,Tag0,unknown
1544369936646,0,50,1.0986328125E-5,20,38,36,97950,16763872,9362,3931,2511,2751,2294,685,Tag0,unknown
1544369936646,0,72,1.58203125E-5,20,38,36,97950,16763872,9362,3931,2511,2751,2294,685,Tag0,unknown
1544369936646,0,69,1.51611328125E-5,20,38,36,97950,16763872,9362,3931,2511,2751,2294,685,Tag0,unknown
1544369936646,0,55,1.20849609375E-5,20,38,36,97950,16763872,9362,3931,2511,2751,2294,685,Tag0,unknown
1544369936646,0,42,9.228515625000002E-6,20,38,36,97950,16763872,9362,3931,2511,2751,2294,685,Tag0,unknown
1544369936646,0,42,9.228515625000002E-6,20,38,36,97950,16763872,9362,3931,2511,2751,2294,685,Tag0,unknown
1544369936647,0,82,1.8017578124999998E-5,20,38,36,97950,16763872,9362,3931,2511,2751,2294,685,Tag0,unknown
1544369936647,0,102,2.2412109374999998E-5,20,38,36,97950,16763872,9362,3931,2511,2751,2294,685,Tag0,unknown
1544369936647,0,76,1.669921875E-5,20,38,36,97950,16763872,9362,3931,2511,2751,2294,685,Tag0,unknown
1544369936647,0,52,1.142578125E-5,20,38,36,97950,16763872,9362,3931,2511,2751,2294,685,Tag0,unknown
1544369936647,0,42,9.228515625000002E-6,20,38,36,97950,16763872,9362,3931,2511,2751,2294,685,Tag0,unknown
1544369936666,0,49,1.07666015625E-5,20,38,36,97950,16763872,9362,3931,2511,2751,2294,685,Tag0,unknown
1544369936666,0,67,1.4721679687500002E-5,20,38,36,97950,16763872,9362,3931,2511,2751,2294,685,Tag0,unknown
1544369936667,0,85,1.86767578125E-5,20,38,36,97950,16763872,9362,3931,2511,2751,2294,685,Tag0,unknown
1544369936667,0,91,1.99951171875E-5,20,38,36,97950,16763872,9362,3931,2511,2751,2294,685,Tag0,unknown
1544369936667,0,77,1.69189453125E-5,20,38,36,97950,16763872,9362,3931,2511,2751,2294,685,Tag0,unknown
1544369936668,0,73,1.6040039062500002E-5,20,38,36,97950,16763872,9362,3931,2511,2751,2294,685,Tag0,unknown
1544369936668,0,60,1.318359375E-5,20,38,36,97950,16763872,9362,3931,2511,2751,2294,685,Tag0,unknown
1544369936669,0,38,8.349609375E-6,20,38,36,97950,16763872,9362,3931,2511,2751,2294,685,Tag0,unknown
1544369936669,0,44,9.66796875E-6,20,38,36,97950,16763872,9362,3931,2511,2751,2294,685,Tag0,unknown
1544369936670,0,80,1.7578125E-5,20,38,36,97950,16763872,9362,3931,2511,2751,2294,685,Tag0,unknown
1544369936670,0,97,2.13134765625E-5,20,38,36,97950,16763872,9362,3931,2511,2751,2294,685,Tag0,unknown
1544369936670,0,101,2.2192382812500002E-5,20,38,36,97950,16763872,9362,3931,2511,2751,2294,685,Tag0,unknown
1544369936671,0,99,2.1752929687500003E-5,20,38,36,97950,16763872,9362,3931,2511,2751,2294,685,Tag0,unknown
1544369936671,0,76,1.669921875E-5,20,38,36,97950,16763872,9362,3931,2511,2751,2294,685,Tag0,unknown
1544369936671,0,49,1.07666015625E-5,20,38,36,97950,16763872,9362,3931,2511,2751,2294,685,Tag0,unknown
1544369936672,0,53,1.1645507812500002E-5,20,38,36,97950,16763872,9362,3931,2511,2751,2294,685,Tag0,unknown
1544369936672,0,56,1.23046875E-5,20,38,36,97950,16763872,9362,3931,2511,2751,2294,685,Tag0,unknown
1544369936672,0,33,7.2509765625E-6,20,38,36,97950,16763872,9362,3931,2511,2751,2294,685,Tag0,unknown
1544369936673,0,17,3.7353515625000003E-6,20,38,36,97950,16763872,9362,3931,2511,2751,2294,685,Tag0,unknown
1544369936673,0,25,5.4931640625E-6,20,38,36,97950,16763872,9362,3931,2511,2751,2294,685,Tag0,unknown
1544369936673,0,22,4.833984375E-6,20,38,36,97950,16763872,9362,3931,2511,2751,2294,685,Tag0,unknown
1544369936673,0,20,4.39453125E-6,20,38,36,97950,16763872,9362,3931,2511,2751,2294,685,Tag0,unknown
1544369936674,0,40,8.7890625E-6,20,38,36,97950,16763872,9362,3931,2511,2751,2294,685,Tag0,unknown
1544369936674,0,52,1.142578125E-5,20,38,36,97950,16763872,9362,3931,2511,2751,2294,685,Tag0,unknown
1544369936674,0,34,7.4707031250000005E-6,20,38,36,97950,16763872,9362,3931,2511,2751,2294,685,Tag0,unknown
1544369936674,0,19,4.1748046875E-6,20,38,36,97950,16763872,9362,3931,2511,2751,2294,685,Tag0,unknown
1544369936675,0,33,7.2509765625E-6,20,38,36,97950,16763872,9362,3931,2511,2751,2294,685,Tag0,unknown
1544369936675,0,38,8.349609375E-6,20,38,36,97950,16763872,9362,3931,2511,2751,2294,685,Tag0,unknown
1544369936675,0,52,1.142578125E-5,20,38,36,97950,16763872,9362,3931,2511,2751,2294,685,Tag0,unknown
1544369936676,0,85,1.86767578125E-5,20,38,36,97950,16763872,9362,3931,2511,2751,2294,685,Tag0,unknown
1544369936677,0,92,2.021484375E-5,20,38,36,97950,16763872,9362,3931,2511,2751,2294,685,Tag0,unknown
1544369936677,0,89,1.95556640625E-5,20,38,36,97950,16763872,9362,3931,2511,2751,2294,685,Tag0,unknown
1544369936678,0,99,2.1752929687500003E-5,20,38,36,97950,16763872,9362,3931,2511,2751,2294,685,Tag0,unknown
1544369936678,0,-124,-2.724609375E-5,20,38,36,97950,16763872,9362,3931,2511,2751,2294,685,Tag0,unknown
1544369936680,0,-117,-2.5708007812499998E-5,20,38,36,97950,16763872,9362,3931,2511,2751,2294,685,Tag0,unknown
1544369936724,0,124,2.724609375E-5,20,38,36,97950,16763872,9362,3931,2511,2751,2294,685,Tag0,unknown
1544369936738,0,123,2.70263671875E-5,20,38,36,97950,16763872,9362,3931,2511,2751,2294,685,Tag0,unknown
1544369936747,0,121,2.6586914062500003E-5,20,38,36,97950,16763872,9362,3931,2511,2751,2294,685,Tag0,unknown
1544369936747,0,99,2.1752929687500003E-5,20,38,36,97950,16763872,9362,3931,2511,2751,2294,685,Tag0,unknown
1544369936809,0,77,1.69189453125E-5,20,38,36,97950,16763872,9362,3931,2511,2751,2294,685,Tag0,unknown
1544369936809,0,73,1.6040039062500002E-5,20,38,36,97950,16763872,9362,3931,2511,2751,2294,685,Tag0,unknown
1544369936809,0,53,1.1645507812500002E-5,20,38,36,97950,16763872,9362,3931,2511,2751,2294,685,Tag0,unknown
1544369936809,0,42,9.228515625000002E-6,20,38,36,97950,16763872,9362,3931,2511,2751,2294,685,Tag0,unknown
1544369936809,0,53,1.1645507812500002E-5,20,38,36,97950,16763872,9362,3931,2511,2751,2294,685,Tag0,unknown
1544369936809,0,52,1.142578125E-5,20,38,36,97950,16763872,9362,3931,2511,2751,2294,685,Tag0,unknown
1544369936809,0,34,7.4707031250000005E-6,20,38,36,97950,16763872,9362,3931,2511,2751,2294,685,Tag0,unknown
1544369936809,0,36,7.91015625E-6,20,38,36,97950,16763872,9362,3931,2511,2751,2294,685,Tag0,unknown
1544369936809,0,48,1.0546875E-5,20,38,36,97950,16763872,9362,3931,2511,2751,2294,685,Tag0,unknown
1544369936810,0,35,7.6904296875E-6,20,38,36,97950,16763872,9362,3931,2511,2751,2294,685,Tag0,unknown
1544369936810,0,20,4.39453125E-6,20,38,36,97950,16763872,9362,3931,2511,2751,2294,685,Tag0,unknown
1544369936810,0,26,5.712890625E-6,20,38,36,97950,16763872,9362,3931,2511,2751,2294,685,Tag0,unknown
1544369936810,0,26,5.712890625E-6,20,38,36,97950,16763872,9362,3931,2511,2751,2294,685,Tag0,unknown
1544369936810,0,24,5.2734375E-6,20,38,36,97950,16763872,9362,3931,2511,2751,2294,685,Tag0,unknown
1544369936810,0,37,8.1298828125E-6,20,38,36,97950,16763872,9362,3931,2511,2751,2294,685,Tag0,unknown
1544369936810,0,45,9.8876953125E-6,20,38,36,97950,16763872,9362,3931,2511,2751,2294,685,Tag0,unknown
1544369936810,0,52,1.142578125E-5,20,38,36,97950,16763872,9362,3931,2511,2751,2294,685,Tag0,unknown
1544369936810,0,69,1.51611328125E-5,20,38,36,97950,16763872,9362,3931,2511,2751,2294,685,Tag0,unknown
1544369936810,0,81,1.77978515625E-5,20,38,36,97950,16763872,9362,3931,2511,2751,2294,685,Tag0,unknown
1544369936810,0,70,1.5380859375E-5,20,38,36,97950,16763872,9362,3931,2511,2751,2294,685,Tag0,unknown
1544369936810,0,54,1.1865234375000001E-5,20,38,36,97950,16763872,9362,3931,2511,2751,2294,685,Tag0,unknown
1544369936811,0,74,1.6259765625E-5,20,38,36,97950,16763872,9362,3931,2511,2751,2294,685,Tag0,unknown
1544369936811,0,89,1.95556640625E-5,20,38,36,97950,16763872,9362,3931,2511,2751,2294,685,Tag0,unknown
1544369936811,0,83,1.82373046875E-5,20,38,36,97950,16763872,9362,3931,2511,2751,2294,685,Tag0,unknown
1544369936811,0,84,1.8457031250000004E-5,20,38,36,97950,16763872,9362,3931,2511,2751,2294,685,Tag0,unknown
1544369936811,0,84,1.8457031250000004E-5,20,38,36,97950,16763872,9362,3931,2511,2751,2294,685,Tag0,unknown
1544369936811,0,66,1.4501953125E-5,20,38,36,97950,16763872,9362,3931,2511,2751,2294,685,Tag0,unknown
1544369936811,0,66,1.4501953125E-5,20,38,36,97950,16763872,9362,3931,2511,2751,2294,685,Tag0,unknown
1544369936811,0,80,1.7578125E-5,20,38,36,97950,16763872,9362,3931,2511,2751,2294,685,Tag0,unknown
1544369936811,0,71,1.56005859375E-5,20,38,36,97950,16763872,9362,3931,2511,2751,2294,685,Tag0,unknown
1544369936811,0,48,1.0546875E-5,20,38,36,97950,16763872,9362,3931,2511,2751,2294,685,Tag0,unknown
1544369936812,0,61,1.34033203125E-5,20,38,36,97950,16763872,9362,3931,2511,2751,2294,685,Tag0,unknown
1544369936812,0,82,1.8017578124999998E-5,20,38,36,97950,16763872,9362,3931,2511,2751,2294,685,Tag0,unknown
1544369936812,0,73,1.6040039062500002E-5,20,38,36,97950,16763872,9362,3931,2511,2751,2294,685,Tag0,unknown
1544369936812,0,69,1.51611328125E-5,20,38,36,97950,16763872,9362,3931,2511,2751,2294,685,Tag0,unknown
1544369936812,0,74,1.6259765625E-5,20,38,36,97950,16763872,9362,3931,2511,2751,2294,685,Tag0,unknown
1544369936812,0,72,1.58203125E-5,20,38,36,97950,16763872,9362,3931,2511,2751,2294,685,Tag0,unknown
1544369936812,0,72,1.58203125E-5,20,38,36,97950,16763872,9362,3931,2511,2751,2294,685,Tag0,unknown
1544369936812,0,74,1.6259765625E-5,20,38,36,97950,16763872,9362,3931,2511,2751,2294,685,Tag0,unknown
1544369936813,0,68,1.4941406250000001E-5,20,38,36,97950,16763872,9362,3931,2511,2751,2294,685,Tag0,unknown
1544369936829,0,55,1.20849609375E-5,20,38,36,97950,16763872,9362,3931,2511,2751,2294,685,Tag0,unknown
1544369936829,0,51,1.1206054687499999E-5,20,38,36,97950,16763872,9362,3931,2511,2751,2294,685,Tag0,unknown
1544369936829,0,61,1.34033203125E-5,20,38,36,97950,16763872,9362,3931,2511,2751,2294,685,Tag0,unknown
1544369936829,0,51,1.1206054687499999E-5,20,38,36,97950,16763872,9362,3931,2511,2751,2294,685,Tag0,unknown
1544369936830,0,44,9.66796875E-6,20,38,36,97950,16763872,9362,3931,2511,2751,2294,685,Tag0,unknown
1544369936830,0,65,1.42822265625E-5,20,38,36,97950,16763872,9362,3931,2511,2751,2294,685,Tag0,unknown
1544369936830,0,65,1.42822265625E-5,20,38,36,97950,16763872,9362,3931,2511,2751,2294,685,Tag0,unknown
1544369936830,0,51,1.1206054687499999E-5,20,38,36,97950,16763872,9362,3931,2511,2751,2294,685,Tag0,unknown
1544369936830,0,49,1.07666015625E-5,20,38,36,97950,16763872,9362,3931,2511,2751,2294,685,Tag0,unknown
1544369936830,0,42,9.228515625000002E-6,20,38,36,97950,16763872,9362,3931,2511,2751,2294,685,Tag0,unknown
1544369936830,0,17,3.7353515625000003E-6,20,38,36,97950,16763872,9362,3931,2511,2751,2294,685,Tag0,unknown
1544369936830,0,5,1.0986328125E-6,20,38,36,97950,16763872,9362,3931,2511,2751,2294,685,Tag0,unknown
1544369936830,0,50,1.0986328125E-5,20,38,36,97950,16763872,9362,3931,2511,2751,2294,685,Tag0,unknown
1544369936830,0,77,1.69189453125E-5,20,38,36,97950,16763872,9362,3931,2511,2751,2294,685,Tag0,unknown
1544369936831,0,68,1.4941406250000001E-5,20,38,36,97950,16763872,9362,3931,2511,2751,2294,685,Tag0,unknown
1544369936831,0,60,1.318359375E-5,20,38,36,97950,16763872,9362,3931,2511,2751,2294,685,Tag0,unknown
1544369936831,0,75,1.64794921875E-5,20,38,36,97950,16763872,9362,3931,2511,2751,2294,685,Tag0,unknown
1544369936831,0,88,1.93359375E-5,20,38,36,97950,16763872,9362,3931,2511,2751,2294,685,Tag0,unknown
1544369936831,0,99,2.1752929687500003E-5,20,38,36,97950,16763872,9362,3931,2511,2751,2294,685,Tag0,unknown
1544369936831,0,103,2.26318359375E-5,20,38,36,97950,16763872,9362,3931,2511,2751,2294,685,Tag0,unknown
1544369936831,0,82,1.8017578124999998E-5,20,38,36,97950,16763872,9362,3931,2511,2751,2294,685,Tag0,unknown
1544369936831,0,67,1.4721679687500002E-5,20,38,36,97950,16763872,9362,3931,2511,2751,2294,685,Tag0,unknown
1544369936831,0,72,1.58203125E-5,20,38,36,97950,16763872,9362,3931,2511,2751,2294,685,Tag0,unknown
1544369936832,0,68,1.4941406250000001E-5,20,38,36,97950,16763872,9362,3931,2511,2751,2294,685,Tag0,unknown
1544369936832,0,49,1.07666015625E-5,20,38,36,97950,16763872,9362,3931,2511,2751,2294,685,Tag0,unknown
1544369936832,0,36,7.91015625E-6,20,38,36,97950,16763872,9362,3931,2511,2751,2294,685,Tag0,unknown
1544369936833,0,26,5.712890625E-6,20,38,36,97950,16763872,9362,3931,2511,2751,2294,685,Tag0,unknown
1544369936833,0,13,2.8564453125E-6,20,38,36,97950,16763872,9362,3931,2511,2751,2294,685,Tag0,unknown
1544369936833,0,23,5.0537109375E-6,20,38,36,97950,16763872,9362,3931,2511,2751,2294,685,Tag0,unknown
1544369936833,0,36,7.91015625E-6,20,38,36,97950,16763872,9362,3931,2511,2751,2294,685,Tag0,unknown
1544369936833,0,24,5.2734375E-6,20,38,36,97950,16763872,9362,3931,2511,2751,2294,685,Tag0,unknown
1544369936833,0,10,2.197265625E-6,20,38,36,97950,16763872,9362,3931,2511,2751,2294,685,Tag0,unknown
1544369936834,0,21,4.614257812500001E-6,20,38,36,97950,16763872,9362,3931,2511,2751,2294,685,Tag0,unknown
1544369936834,0,40,8.7890625E-6,20,38,36,97950,16763872,9362,3931,2511,2751,2294,685,Tag0,unknown
1544369936834,0,51,1.1206054687499999E-5,20,38,36,97950,16763872,9362,3931,2511,2751,2294,685,Tag0,unknown
1544369936834,0,59,1.29638671875E-5,20,38,36,97950,16763872,9362,3931,2511,2751,2294,685,Tag0,unknown
1544369936834,0,71,1.56005859375E-5,20,38,36,97950,16763872,9362,3931,2511,2751,2294,685,Tag0,unknown
1544369936834,0,65,1.42822265625E-5,20,38,36,97950,16763872,9362,3931,2511,2751,2294,685,Tag0,unknown
1544369936835,0,48,1.0546875E-5,20,38,36,97950,16763872,9362,3931,2511,2751,2294,685,Tag0,unknown
1544369936906,0,51,1.1206054687499999E-5,20,38,36,97950,16763872,9362,3931,2511,2751,2294,685,Tag0,unknown
1544369936906,0,57,1.2524414062500001E-5,20,38,36,97950,16763872,9362,3931,2511,2751,2294,685,Tag0,unknown
1544369936906,0,51,1.1206054687499999E-5,20,38,36,97950,16763872,9362,3931,2511,2751,2294,685,Tag0,unknown
1544369936907,0,54,1.1865234375000001E-5,20,38,36,97950,16763872,9362,3931,2511,2751,2294,685,Tag0,unknown
1544369936907,0,72,1.58203125E-5,20,38,36,97950,16763872,9362,3931,2511,2751,2294,685,Tag0,unknown
1544369936907,0,67,1.4721679687500002E-5,20,38,36,97950,16763872,9362,3931,2511,2751,2294,685,Tag0,unknown
1544369936907,0,50,1.0986328125E-5,20,38,36,97950,16763872,9362,3931,2511,2751,2294,685,Tag0,unknown
1544369936907,0,48,1.0546875E-5,20,38,36,97950,16763872,9362,3931,2511,2751,2294,685,Tag0,unknown
1544369936908,0,50,1.0986328125E-5,20,38,36,97950,16763872,9362,3931,2511,2751,2294,685,Tag0,unknown
1544369936908,0,42,9.228515625000002E-6,20,38,36,97950,16763872,9362,3931,2511,2751,2294,685,Tag0,unknown
1544369936908,0,51,1.1206054687499999E-5,20,38,36,97950,16763872,9362,3931,2511,2751,2294,685,Tag0,unknown
1544369936908,0,48,1.0546875E-5,20,38,36,97950,16763872,9362,3931,2511,2751,2294,685,Tag0,unknown
1544369936908,0,24,5.2734375E-6,20,38,36,97950,16763872,9362,3931,2511,2751,2294,685,Tag0,unknown
1544369936908,0,11,2.4169921875E-6,20,38,36,97950,16763872,9362,3931,2511,2751,2294,685,Tag0,unknown
1544369936909,0,19,4.1748046875E-6,20,38,36,97950,16763872,9362,3931,2511,2751,2294,685,Tag0,unknown
1544369936909,0,12,2.63671875E-6,20,38,36,97950,16763872,9362,3931,2511,2751,2294,685,Tag0,unknown
1544369936909,0,10,2.197265625E-6,20,38,36,97950,16763872,9362,3931,2511,2751,2294,685,Tag0,unknown
1544369936909,0,27,5.9326171875000005E-6,20,38,36,97950,16763872,9362,3931,2511,2751,2294,685,Tag0,unknown
1544369936909,0,33,7.2509765625E-6,20,38,36,97950,16763872,9362,3931,2511,2751,2294,685,Tag0,unknown
1544369936909,0,6,1.318359375E-6,20,38,36,97950,16763872,9362,3931,2511,2751,2294,685,Tag0,unknown
1544369936910,0,7,1.5380859375E-6,20,38,36,97950,16763872,9362,3931,2511,2751,2294,685,Tag0,unknown
1544369936910,0,38,8.349609375E-6,20,38,36,97950,16763872,9362,3931,2511,2751,2294,685,Tag0,unknown
1544369936910,0,55,1.20849609375E-5,20,38,36,97950,16763872,9362,3931,2511,2751,2294,685,Tag0,unknown
1544369936910,0,59,1.29638671875E-5,20,38,36,97950,16763872,9362,3931,2511,2751,2294,685,Tag0,unknown
1544369936910,0,75,1.64794921875E-5,20,38,36,97950,16763872,9362,3931,2511,2751,2294,685,Tag0,unknown
1544369936911,0,84,1.8457031250000004E-5,20,38,36,97950,16763872,9362,3931,2511,2751,2294,685,Tag0,unknown
1544369936911,0,81,1.77978515625E-5,20,38,36,97950,16763872,9362,3931,2511,2751,2294,685,Tag0,unknown
1544369936911,0,81,1.77978515625E-5,20,38,36,97950,16763872,9362,3931,2511,2751,2294,685,Tag0,unknown
1544369936911,0,75,1.64794921875E-5,20,38,36,97950,16763872,9362,3931,2511,2751,2294,685,Tag0,unknown
1544369936913,0,54,1.1865234375000001E-5,20,38,36,97950,16763872,9362,3931,2511,2751,2294,685,Tag0,unknown
1544369936914,0,36,7.91015625E-6,20,38,36,97950,16763872,9362,3931,2511,2751,2294,685,Tag0,unknown
1544369936914,0,40,8.7890625E-6,20,38,36,97950,16763872,9362,3931,2511,2751,2294,685,Tag0,unknown
1544369936914,0,42,9.228515625000002E-6,20,38,36,97950,16763872,9362,3931,2511,2751,2294,685,Tag0,unknown
1544369936915,0,24,5.2734375E-6,20,38,36,97950,16763872,9362,3931,2511,2751,2294,685,Tag0,unknown
1544369936915,0,8,1.7578125E-6,20,38,36,97950,16763872,9362,3931,2511,2751,2294,685,Tag0,unknown
1544369936915,0,1,2.197265625E-7,20,38,36,97950,16763872,9362,3931,2511,2751,2294,685,Tag0,unknown
1544369936918,0,5,1.0986328125E-6,20,38,36,97950,16763872,9362,3931,2511,2751,2294,685,Tag0,unknown
1544369936918,0,32,7.03125E-6,20,38,36,97950,16763872,9362,3931,2511,2751,2294,685,Tag0,unknown
1544369936918,0,58,1.2744140625E-5,20,38,36,97950,16763872,9362,3931,2511,2751,2294,685,Tag0,unknown
1544369936919,0,59,1.29638671875E-5,20,38,36,97950,16763872,9362,3931,2511,2751,2294,685,Tag0,unknown
1544369936919,0,53,1.1645507812500002E-5,20,38,36,97950,16763872,9362,3931,2511,2751,2294,685,Tag0,unknown
1544369936919,0,53,1.1645507812500002E-5,20,38,36,97950,16763872,9362,3931,2511,2751,2294,685,Tag0,unknown
1544369936930,0,37,8.1298828125E-6,20,38,36,97950,16763872,9362,3931,2511,2751,2294,685,Tag0,unknown
1544369936930,0,17,3.7353515625000003E-6,20,38,36,97950,16763872,9362,3931,2511,2751,2294,685,Tag0,unknown
1544369936930,0,24,5.2734375E-6,20,38,36,97950,16763872,9362,3931,2511,2751,2294,685,Tag0,unknown
1544369936930,0,40,8.7890625E-6,20,38,36,97950,16763872,9362,3931,2511,2751,2294,685,Tag0,unknown
1544369936931,0,39,8.5693359375E-6,20,38,36,97950,16763872,9362,3931,2511,2751,2294,685,Tag0,unknown
1544369936985,0,44,9.66796875E-6,20,38,36,97950,16763872,9362,3931,2511,2751,2294,685,Tag0,unknown
1544369936999,0,69,1.51611328125E-5,20,38,36,97950,16763872,9362,3931,2511,2751,2294,685,Tag0,unknown
1544369936999,0,83,1.82373046875E-5,20,38,36,97950,16763872,9362,3931,2511,2751,2294,685,Tag0,unknown
1544369937000,0,70,1.5380859375E-5,20,38,36,97950,16763872,9362,3931,2511,2751,2294,685,Tag0,unknown
1544369937000,0,66,1.4501953125E-5,20,38,36,97950,16763872,9362,3931,2511,2751,2294,685,Tag0,unknown
1544369937000,0,72,1.58203125E-5,20,38,36,97950,16763872,9362,3931,2511,2751,2294,685,Tag0,unknown
1544369937000,0,66,1.4501953125E-5,20,38,36,97950,16763872,9362,3931,2511,2751,2294,685,Tag0,unknown
1544369937000,0,49,1.07666015625E-5,20,38,36,97950,16763872,9362,3931,2511,2751,2294,685,Tag0,unknown
1544369937000,0,49,1.07666015625E-5,20,38,36,97950,16763872,9362,3931,2511,2751,2294,685,Tag0,unknown
1544369937001,0,49,1.07666015625E-5,20,38,36,97950,16763872,9362,3931,2511,2751,2294,685,Tag0,unknown
1544369937001,0,50,1.0986328125E-5,20,38,36,97950,16763872,9362,3931,2511,2751,2294,685,Tag0,unknown
1544369937001,0,54,1.1865234375000001E-5,20,38,36,97950,16763872,9362,3931,2511,2751,2294,685,Tag0,unknown
1544369937001,0,43,9.448242187500001E-6,20,38,36,97950,16763872,9362,3931,2511,2751,2294,685,Tag0,unknown
1544369937001,0,24,5.2734375E-6,20,38,36,97950,16763872,9362,3931,2511,2751,2294,685,Tag0,unknown
1544369937002,0,33,7.2509765625E-6,20,38,36,97950,16763872,9362,3931,2511,2751,2294,685,Tag0,unknown
1544369937002,0,38,8.349609375E-6,20,38,36,97950,16763872,9362,3931,2511,2751,2294,685,Tag0,unknown
1544369937002,0,21,4.614257812500001E-6,20,38,36,97950,16763872,9362,3931,2511,2751,2294,685,Tag0,unknown
1544369937002,0,20,4.39453125E-6,20,38,36,97950,16763872,9362,3931,2511,2751,2294,685,Tag0,unknown
1544369937002,0,37,8.1298828125E-6,20,38,36,97950,16763872,9362,3931,2511,2751,2294,685,Tag0,unknown
1544369937002,0,39,8.5693359375E-6,20,38,36,97950,16763872,9362,3931,2511,2751,2294,685,Tag0,unknown
1544369937003,0,32,7.03125E-6,20,38,36,97950,16763872,9362,3931,2511,2751,2294,685,Tag0,unknown
1544369937003,0,41,9.008789062499999E-6,20,38,36,97950,16763872,9362,3931,2511,2751,2294,685,Tag0,unknown
1544369937003,0,58,1.2744140625E-5,20,38,36,97950,16763872,9362,3931,2511,2751,2294,685,Tag0,unknown
1544369937003,0,51,1.1206054687499999E-5,20,38,36,97950,16763872,9362,3931,2511,2751,2294,685,Tag0,unknown
1544369937003,0,41,9.008789062499999E-6,20,38,36,97950,16763872,9362,3931,2511,2751,2294,685,Tag0,unknown
1544369937003,0,44,9.66796875E-6,20,38,36,97950,16763872,9362,3931,2511,2751,2294,685,Tag0,unknown
1544369937004,0,37,8.1298828125E-6,20,38,36,97950,16763872,9362,3931,2511,2751,2294,685,Tag0,unknown
1544369937004,0,21,4.614257812500001E-6,20,38,36,97950,16763872,9362,3931,2511,2751,2294,685,Tag0,unknown
1544369937004,0,17,3.7353515625000003E-6,20,38,36,97950,16763872,9362,3931,2511,2751,2294,685,Tag0,unknown
1544369937004,0,16,3.515625E-6,20,38,36,97950,16763872,9362,3931,2511,2751,2294,685,Tag0,unknown
1544369937004,0,9,1.9775390625E-6,20,38,36,97950,16763872,9362,3931,2511,2751,2294,685,Tag0,unknown
1544369937004,0,13,2.8564453125E-6,20,38,36,97950,16763872,9362,3931,2511,2751,2294,685,Tag0,unknown
1544369937005,0,27,5.9326171875000005E-6,20,38,36,97950,16763872,9362,3931,2511,2751,2294,685,Tag0,unknown
1544369937005,0,26,5.712890625E-6,20,38,36,97950,16763872,9362,3931,2511,2751,2294,685,Tag0,unknown
1544369937005,0,5,1.0986328125E-6,20,38,36,97950,16763872,9362,3931,2511,2751,2294,685,Tag0,unknown
1544369937005,0,-260,-5.712890625E-5,20,38,36,97950,16763872,9362,3931,2511,2751,2294,685,Tag0,unknown
1544369937005,0,-259,-5.69091796875E-5,20,38,36,97950,16763872,9362,3931,2511,2751,2294,685,Tag0,unknown
1544369937005,0,9,1.9775390625E-6,20,38,36,97950,16763872,9362,3931,2511,2751,2294,685,Tag0,unknown
1544369937006,0,36,7.91015625E-6,20,38,36,97950,16763872,9362,3931,2511,2751,2294,685,Tag0,unknown
1544369937006,0,56,1.23046875E-5,20,38,36,97950,16763872,9362,3931,2511,2751,2294,685,Tag0,unknown
1544369937016,0,54,1.1865234375000001E-5,20,38,36,97950,16763872,9362,3931,2511,2751,2294,685,Tag0,unknown
1544369937016,0,55,1.20849609375E-5,20,38,36,97950,16763872,9362,3931,2511,2751,2294,685,Tag0,unknown
1544369937016,0,54,1.1865234375000001E-5,20,38,36,97950,16763872,9362,3931,2511,2751,2294,685,Tag0,unknown
1544369937017,0,53,1.1645507812500002E-5,20,38,36,97950,16763872,9362,3931,2511,2751,2294,685,Tag0,unknown
1544369937063,0,80,1.7578125E-5,20,38,36,97950,16763872,9362,3931,2511,2751,2294,685,Tag0,unknown
1544369937093,0,114,2.5048828125000003E-5,20,38,36,97950,16763872,9362,3931,2511,2751,2294,685,Tag0,unknown
1544369937093,0,118,2.5927734375E-5,20,38,36,97950,16763872,9362,3931,2511,2751,2294,685,Tag0,unknown
1544369937094,0,75,1.64794921875E-5,20,38,36,97950,16763872,9362,3931,2511,2751,2294,685,Tag0,unknown
1544369937094,0,33,7.2509765625E-6,20,38,36,97950,16763872,9362,3931,2511,2751,2294,685,Tag0,unknown
1544369937094,0,28,6.15234375E-6,20,38,36,97950,16763872,9362,3931,2511,2751,2294,685,Tag0,unknown
1544369937095,0,40,8.7890625E-6,20,38,36,97950,16763872,9362,3931,2511,2751,2294,685,Tag0,unknown
1544369937095,0,58,1.2744140625E-5,20,38,36,97950,16763872,9362,3931,2511,2751,2294,685,Tag0,unknown
1544369937096,0,75,1.64794921875E-5,20,38,36,97950,16763872,9362,3931,2511,2751,2294,685,Tag0,unknown
1544369937096,0,71,1.56005859375E-5,20,38,36,97950,16763872,9362,3931,2511,2751,2294,685,Tag0,unknown
1544369937096,0,38,8.349609375E-6,20,38,36,97950,16763872,9362,3931,2511,2751,2294,685,Tag0,unknown
1544369937097,0,35,7.6904296875E-6,20,38,36,97950,16763872,9362,3931,2511,2751,2294,685,Tag0,unknown
1544369937097,0,54,1.1865234375000001E-5,20,38,36,97950,16763872,9362,3931,2511,2751,2294,685,Tag0,unknown
1544369937097,0,61,1.34033203125E-5,20,38,36,97950,16763872,9362,3931,2511,2751,2294,685,Tag0,unknown
1544369937098,0,65,1.42822265625E-5,20,38,36,97950,16763872,9362,3931,2511,2751,2294,685,Tag0,unknown
1544369937098,0,70,1.5380859375E-5,20,38,36,97950,16763872,9362,3931,2511,2751,2294,685,Tag0,unknown
1544369937098,0,57,1.2524414062500001E-5,20,38,36,97950,16763872,9362,3931,2511,2751,2294,685,Tag0,unknown
1544369937099,0,24,5.2734375E-6,20,38,36,97950,16763872,9362,3931,2511,2751,2294,685,Tag0,unknown
1544369937100,0,10,2.197265625E-6,20,38,36,97950,16763872,9362,3931,2511,2751,2294,685,Tag0,unknown
1544369937100,0,27,5.9326171875000005E-6,20,38,36,97950,16763872,9362,3931,2511,2751,2294,685,Tag0,unknown
1544369937100,0,37,8.1298828125E-6,20,38,36,97950,16763872,9362,3931,2511,2751,2294,685,Tag0,unknown
1544369937100,0,48,1.0546875E-5,20,38,36,97950,16763872,9362,3931,2511,2751,2294,685,Tag0,unknown
1544369937101,0,45,9.8876953125E-6,20,38,36,97950,16763872,9362,3931,2511,2751,2294,685,Tag0,unknown
1544369937101,0,19,4.1748046875E-6,20,38,36,97950,16763872,9362,3931,2511,2751,2294,685,Tag0,unknown
1544369937101,0,4,8.7890625E-7,20,38,36,97950,16763872,9362,3931,2511,2751,2294,685,Tag0,unknown
1544369937102,0,17,3.7353515625000003E-6,20,38,36,97950,16763872,9362,3931,2511,2751,2294,685,Tag0,unknown
1544369937102,0,19,4.1748046875E-6,20,38,36,97950,16763872,9362,3931,2511,2751,2294,685,Tag0,unknown
1544369937103,0,-259,-5.69091796875E-5,20,38,36,97950,16763872,9362,3931,2511,2751,2294,685,Tag0,unknown
1544369937103,0,-277,-6.0864257812500005E-5,20,38,36,97950,16763872,9362,3931,2511,2751,2294,685,Tag0,unknown
1544369937103,0,-269,-5.9106445312499996E-5,20,38,36,97950,16763872,9362,3931,2511,2751,2294,685,Tag0,unknown
1544369937104,0,-261,-5.73486328125E-5,20,38,36,97950,16763872,9362,3931,2511,2751,2294,685,Tag0,unknown
1544369937104,0,-262,-5.7568359375E-5,20,38,36,97950,16763872,9362,3931,2511,2751,2294,685,Tag0,unknown
1544369937104,0,-261,-5.73486328125E-5,20,38,36,97950,16763872,9362,3931,2511,2751,2294,685,Tag0,unknown
1544369937105,0,-262,-5.7568359375E-5,20,38,36,97950,16763872,9362,3931,2511,2751,2294,685,Tag0,unknown
1544369937105,0,-260,-5.712890625E-5,20,38,36,97950,16763872,9362,3931,2511,2751,2294,685,Tag0,unknown
1544369937105,0,10,2.197265625E-6,20,38,36,97950,16763872,9362,3931,2511,2751,2294,685,Tag0,unknown
1544369937106,0,26,5.712890625E-6,20,38,36,97950,16763872,9362,3931,2511,2751,2294,685,Tag0,unknown
1544369937107,0,21,4.614257812500001E-6,20,38,36,97950,16763872,9362,3931,2511,2751,2294,685,Tag0,unknown
1544369937109,0,17,3.7353515625000003E-6,20,38,36,97950,16763872,9362,3931,2511,2751,2294,685,Tag0,unknown
1544369937110,0,22,4.833984375E-6,20,38,36,97950,16763872,9362,3931,2511,2751,2294,685,Tag0,unknown
1544369937110,0,23,5.0537109375E-6,20,38,36,97950,16763872,9362,3931,2511,2751,2294,685,Tag0,unknown
1544369937110,0,27,5.9326171875000005E-6,20,38,36,97950,16763872,9362,3931,2511,2751,2294,685,Tag0,unknown
1544369937111,0,44,9.66796875E-6,20,38,36,97950,16763872,9362,3931,2511,2751,2294,685,Tag0,unknown
1544369937111,0,52,1.142578125E-5,20,38,36,97950,16763872,9362,3931,2511,2751,2294,685,Tag0,unknown
1544369937149,0,33,7.2509765625E-6,20,38,36,97950,16763872,9362,3931,2511,2751,2294,685,Tag0,unknown
1544369937166,0,12,2.63671875E-6,20,38,36,97950,16763872,9362,3931,2511,2751,2294,685,Tag0,unknown
1544369937167,0,20,4.39453125E-6,20,38,36,97950,16763872,9362,3931,2511,2751,2294,685,Tag0,unknown
1544369937167,0,17,3.7353515625000003E-6,20,38,36,97950,16763872,9362,3931,2511,2751,2294,685,Tag0,unknown
1544369937168,0,3,6.591796875E-7,20,38,36,97950,16763872,9362,3931,2511,2751,2294,685,Tag0,unknown
1544369937168,0,7,1.5380859375E-6,20,38,36,97950,16763872,9362,3931,2511,2751,2294,685,Tag0,unknown
1544369937169,0,26,5.712890625E-6,20,38,36,97950,16763872,9362,3931,2511,2751,2294,685,Tag0,unknown
1544369937169,0,36,7.91015625E-6,20,38,36,97950,16763872,9362,3931,2511,2751,2294,685,Tag0,unknown
1544369937169,0,45,9.8876953125E-6,20,38,36,97950,16763872,9362,3931,2511,2751,2294,685,Tag0,unknown
1544369937170,0,67,1.4721679687500002E-5,20,38,36,97950,16763872,9362,3931,2511,2751,2294,685,Tag0,unknown
1544369937170,0,66,1.4501953125E-5,20,38,36,97950,16763872,9362,3931,2511,2751,2294,685,Tag0,unknown
1544369937170,0,52,1.142578125E-5,20,38,36,97950,16763872,9362,3931,2511,2751,2294,685,Tag0,unknown
1544369937171,0,52,1.142578125E-5,20,38,36,97950,16763872,9362,3931,2511,2751,2294,685,Tag0,unknown
1544369937171,0,43,9.448242187500001E-6,20,38,36,97950,16763872,9362,3931,2511,2751,2294,685,Tag0,unknown
1544369937172,0,26,5.712890625E-6,20,38,36,97950,16763872,9362,3931,2511,2751,2294,685,Tag0,unknown
1544369937172,0,37,8.1298828125E-6,20,38,36,97950,16763872,9362,3931,2511,2751,2294,685,Tag0,unknown
1544369937181,0,50,1.0986328125E-5,20,38,36,97950,16763872,9362,3931,2511,2751,2294,685,Tag0,unknown
1544369937182,0,34,7.4707031250000005E-6,20,38,36,97950,16763872,9362,3931,2511,2751,2294,685,Tag0,unknown
1544369937182,0,17,3.7353515625000003E-6,20,38,36,97950,16763872,9362,3931,2511,2751,2294,685,Tag0,unknown
1544369937182,0,5,1.0986328125E-6,20,38,36,97950,16763872,9362,3931,2511,2751,2294,685,Tag0,unknown
1544369937183,0,1,2.197265625E-7,20,38,36,97950,16763872,9362,3931,2511,2751,2294,685,Tag0,unknown
1544369937183,0,2,4.39453125E-7,20,38,36,97950,16763872,9362,3931,2511,2751,2294,685,Tag0,unknown
1544369937183,0,25,5.4931640625E-6,20,38,36,97950,16763872,9362,3931,2511,2751,2294,685,Tag0,unknown
1544369937184,0,40,8.7890625E-6,20,38,36,97950,16763872,9362,3931,2511,2751,2294,685,Tag0,unknown
1544369937184,0,32,7.03125E-6,20,38,36,97950,16763872,9362,3931,2511,2751,2294,685,Tag0,unknown
1544369937184,0,28,6.15234375E-6,20,38,36,97950,16763872,9362,3931,2511,2751,2294,685,Tag0,unknown
1544369937185,0,42,9.228515625000002E-6,20,38,36,97950,16763872,9362,3931,2511,2751,2294,685,Tag0,unknown
1544369937185,0,39,8.5693359375E-6,20,38,36,97950,16763872,9362,3931,2511,2751,2294,685,Tag0,unknown
1544369937185,0,33,7.2509765625E-6,20,38,36,97950,16763872,9362,3931,2511,2751,2294,685,Tag0,unknown
1544369937185,0,37,8.1298828125E-6,20,38,36,97950,16763872,9362,3931,2511,2751,2294,685,Tag0,unknown
1544369937186,0,27,5.9326171875000005E-6,20,38,36,97950,16763872,9362,3931,2511,2751,2294,685,Tag0,unknown
1544369937186,0,6,1.318359375E-6,20,38,36,97950,16763872,9362,3931,2511,2751,2294,685,Tag0,unknown
1544369937186,0,2,4.39453125E-7,20,38,36,97950,16763872,9362,3931,2511,2751,2294,685,Tag0,unknown
1544369937186,0,10,2.197265625E-6,20,38,36,97950,16763872,9362,3931,2511,2751,2294,685,Tag0,unknown
1544369937187,0,22,4.833984375E-6,20,38,36,97950,16763872,9362,3931,2511,2751,2294,685,Tag0,unknown
1544369937187,0,43,9.448242187500001E-6,20,38,36,97950,16763872,9362,3931,2511,2751,2294,685,Tag0,unknown
1544369937187,0,71,1.56005859375E-5,20,38,36,97950,16763872,9362,3931,2511,2751,2294,685,Tag0,unknown
1544369937187,0,77,1.69189453125E-5,20,38,36,97950,16763872,9362,3931,2511,2751,2294,685,Tag0,unknown
1544369937188,0,68,1.4941406250000001E-5,20,38,36,97950,16763872,9362,3931,2511,2751,2294,685,Tag0,unknown
1544369937188,0,71,1.56005859375E-5,20,38,36,97950,16763872,9362,3931,2511,2751,2294,685,Tag0,unknown
1544369937188,0,72,1.58203125E-5,20,38,36,97950,16763872,9362,3931,2511,2751,2294,685,Tag0,unknown
1544369937188,0,64,1.40625E-5,20,38,36,97950,16763872,9362,3931,2511,2751,2294,685,Tag0,unknown
1544369937189,0,67,1.4721679687500002E-5,20,38,36,97950,16763872,9362,3931,2511,2751,2294,685,Tag0,unknown
1544369937233,0,84,1.8457031250000004E-5,20,38,36,97950,16763872,9362,3931,2511,2751,2294,685,Tag0,unknown
1544369937249,0,65,1.42822265625E-5,20,38,36,97950,16763872,9362,3931,2511,2751,2294,685,Tag0,unknown
1544369937249,0,40,8.7890625E-6,20,38,36,97950,16763872,9362,3931,2511,2751,2294,685,Tag0,unknown
1544369937249,0,54,1.1865234375000001E-5,20,38,36,97950,16763872,9362,3931,2511,2751,2294,685,Tag0,unknown
1544369937251,0,84,1.8457031250000004E-5,20,38,36,97950,16763872,9362,3931,2511,2751,2294,685,Tag0,unknown
1544369937252,0,90,1.9775390625E-5,20,38,36,97950,16763872,9362,3931,2511,2751,2294,685,Tag0,unknown
1544369937253,0,97,2.13134765625E-5,20,38,36,97950,16763872,9362,3931,2511,2751,2294,685,Tag0,unknown
1544369937253,0,102,2.2412109374999998E-5,20,38,36,97950,16763872,9362,3931,2511,2751,2294,685,Tag0,unknown
1544369937254,0,85,1.86767578125E-5,20,38,36,97950,16763872,9362,3931,2511,2751,2294,685,Tag0,unknown
1544369937254,0,55,1.20849609375E-5,20,38,36,97950,16763872,9362,3931,2511,2751,2294,685,Tag0,unknown
1544369937255,0,58,1.2744140625E-5,20,38,36,97950,16763872,9362,3931,2511,2751,2294,685,Tag0,unknown
1544369937255,0,67,1.4721679687500002E-5,20,38,36,97950,16763872,9362,3931,2511,2751,2294,685,Tag0,unknown
1544369937255,0,54,1.1865234375000001E-5,20,38,36,97950,16763872,9362,3931,2511,2751,2294,685,Tag0,unknown
1544369937256,0,37,8.1298828125E-6,20,38,36,97950,16763872,9362,3931,2511,2751,2294,685,Tag0,unknown
1544369937256,0,27,5.9326171875000005E-6,20,38,36,97950,16763872,9362,3931,2511,2751,2294,685,Tag0,unknown
1544369937257,0,26,5.712890625E-6,20,38,36,97950,16763872,9362,3931,2511,2751,2294,685,Tag0,unknown
1544369937257,0,51,1.1206054687499999E-5,20,38,36,97950,16763872,9362,3931,2511,2751,2294,685,Tag0,unknown
1544369937257,0,73,1.6040039062500002E-5,20,38,36,97950,16763872,9362,3931,2511,2751,2294,685,Tag0,unknown
1544369937258,0,61,1.34033203125E-5,20,38,36,97950,16763872,9362,3931,2511,2751,2294,685,Tag0,unknown
1544369937258,0,41,9.008789062499999E-6,20,38,36,97950,16763872,9362,3931,2511,2751,2294,685,Tag0,unknown
1544369937258,0,44,9.66796875E-6,20,38,36,97950,16763872,9362,3931,2511,2751,2294,685,Tag0,unknown
1544369937258,0,58,1.2744140625E-5,20,38,36,97950,16763872,9362,3931,2511,2751,2294,685,Tag0,unknown
1544369937259,0,55,1.20849609375E-5,20,38,36,97950,16763872,9362,3931,2511,2751,2294,685,Tag0,unknown
1544369937259,0,48,1.0546875E-5,20,38,36,97950,16763872,9362,3931,2511,2751,2294,685,Tag0,unknown
1544369937259,0,51,1.1206054687499999E-5,20,38,36,97950,16763872,9362,3931,2511,2751,2294,685,Tag0,unknown
1544369937260,0,43,9.448242187500001E-6,20,38,36,97950,16763872,9362,3931,2511,2751,2294,685,Tag0,unknown
1544369937260,0,38,8.349609375E-6,20,38,36,97950,16763872,9362,3931,2511,2751,2294,685,Tag0,unknown
1544369937260,0,43,9.448242187500001E-6,20,38,36,97950,16763872,9362,3931,2511,2751,2294,685,Tag0,unknown
1544369937260,0,27,5.9326171875000005E-6,20,38,36,97950,16763872,9362,3931,2511,2751,2294,685,Tag0,unknown
1544369937261,0,1,2.197265625E-7,20,38,36,97950,16763872,9362,3931,2511,2751,2294,685,Tag0,unknown
1544369937261,0,9,1.9775390625E-6,20,38,36,97950,16763872,9362,3931,2511,2751,2294,685,Tag0,unknown
1544369937262,0,35,7.6904296875E-6,20,38,36,97950,16763872,9362,3931,2511,2751,2294,685,Tag0,unknown
1544369937262,0,35,7.6904296875E-6,20,38,36,97950,16763872,9362,3931,2511,2751,2294,685,Tag0,unknown
1544369937263,0,32,7.03125E-6,20,38,36,97950,16763872,9362,3931,2511,2751,2294,685,Tag0,unknown
1544369937263,0,41,9.008789062499999E-6,20,38,36,97950,16763872,9362,3931,2511,2751,2294,685,Tag0,unknown
1544369937264,0,49,1.07666015625E-5,20,38,36,97950,16763872,9362,3931,2511,2751,2294,685,Tag0,unknown
1544369937267,0,27,5.9326171875000005E-6,20,38,36,97950,16763872,9362,3931,2511,2751,2294,685,Tag0,unknown
1544369937267,0,13,2.8564453125E-6,20,38,36,97950,16763872,9362,3931,2511,2751,2294,685,Tag0,unknown
1544369937267,0,12,2.63671875E-6,20,38,36,97950,16763872,9362,3931,2511,2751,2294,685,Tag0,unknown
1544369937268,0,9,1.9775390625E-6,20,38,36,97950,16763872,9362,3931,2511,2751,2294,685,Tag0,unknown
1544369937268,0,6,1.318359375E-6,20,38,36,97950,16763872,9362,3931,2511,2751,2294,685,Tag0,unknown
1544369937268,0,12,2.63671875E-6,20,38,36,97950,16763872,9362,3931,2511,2751,2294,685,Tag0,unknown
1544369937269,0,19,4.1748046875E-6,20,38,36,97950,16763872,9362,3931,2511,2751,2294,685,Tag0,unknown
1544369937269,0,25,5.4931640625E-6,20,38,36,97950,16763872,9362,3931,2511,2751,2294,685,Tag0,unknown
1544369937269,0,37,8.1298828125E-6,20,38,36,97950,16763872,9362,3931,2511,2751,2294,685,Tag0,unknown
1544369937320,0,48,1.0546875E-5,20,38,36,97950,16763872,9362,3931,2511,2751,2294,685,Tag0,unknown
1544369937321,0,37,8.1298828125E-6,20,38,36,97950,16763872,9362,3931,2511,2751,2294,685,Tag0,unknown
1544369937321,0,36,7.91015625E-6,20,38,36,97950,16763872,9362,3931,2511,2751,2294,685,Tag0,unknown
1544369937321,0,40,8.7890625E-6,20,38,36,97950,16763872,9362,3931,2511,2751,2294,685,Tag0,unknown
1544369937333,0,42,9.228515625000002E-6,20,38,36,97950,16763872,9362,3931,2511,2751,2294,685,Tag0,unknown
1544369937334,0,39,8.5693359375E-6,20,38,36,97950,16763872,9362,3931,2511,2751,2294,685,Tag0,unknown
1544369937334,0,41,9.008789062499999E-6,20,38,36,97950,16763872,9362,3931,2511,2751,2294,685,Tag0,unknown
1544369937334,0,35,7.6904296875E-6,20,38,36,97950,16763872,9362,3931,2511,2751,2294,685,Tag0,unknown
1544369937334,0,6,1.318359375E-6,20,38,36,97950,16763872,9362,3931,2511,2751,2294,685,Tag0,unknown
1544369937334,0,3,6.591796875E-7,20,38,36,97950,16763872,9362,3931,2511,2751,2294,685,Tag0,unknown
1544369937334,0,25,5.4931640625E-6,20,38,36,97950,16763872,9362,3931,2511,2751,2294,685,Tag0,unknown
1544369937334,0,40,8.7890625E-6,20,38,36,97950,16763872,9362,3931,2511,2751,2294,685,Tag0,unknown
1544369937335,0,40,8.7890625E-6,20,38,36,97950,16763872,9362,3931,2511,2751,2294,685,Tag0,unknown
1544369937335,0,21,4.614257812500001E-6,20,38,36,97950,16763872,9362,3931,2511,2751,2294,685,Tag0,unknown
1544369937335,0,-265,-5.82275390625E-5,20,38,36,97950,16763872,9362,3931,2511,2751,2294,685,Tag0,unknown
1544369937335,0,-292,-6.416015625000001E-5,20,38,36,97950,16763872,9362,3931,2511,2751,2294,685,Tag0,unknown
1544369937335,0,-279,-6.13037109375E-5,20,38,36,97950,16763872,9362,3931,2511,2751,2294,685,Tag0,unknown
1544369937335,0,6,1.318359375E-6,20,38,36,97950,16763872,9362,3931,2511,2751,2294,685,Tag0,unknown
1544369937335,0,22,4.833984375E-6,20,38,36,97950,16763872,9362,3931,2511,2751,2294,685,Tag0,unknown
1544369937336,0,33,7.2509765625E-6,20,38,36,97950,16763872,9362,3931,2511,2751,2294,685,Tag0,unknown
1544369937336,0,55,1.20849609375E-5,20,38,36,97950,16763872,9362,3931,2511,2751,2294,685,Tag0,unknown
1544369937336,0,58,1.2744140625E-5,20,38,36,97950,16763872,9362,3931,2511,2751,2294,685,Tag0,unknown
1544369937336,0,40,8.7890625E-6,20,38,36,97950,16763872,9362,3931,2511,2751,2294,685,Tag0,unknown
1544369937336,0,40,8.7890625E-6,20,38,36,97950,16763872,9362,3931,2511,2751,2294,685,Tag0,unknown
1544369937336,0,50,1.0986328125E-5,20,38,36,97950,16763872,9362,3931,2511,2751,2294,685,Tag0,unknown
1544369937336,0,43,9.448242187500001E-6,20,38,36,97950,16763872,9362,3931,2511,2751,2294,685,Tag0,unknown
1544369937337,0,50,1.0986328125E-5,20,38,36,97950,16763872,9362,3931,2511,2751,2294,685,Tag0,unknown
1544369937337,0,56,1.23046875E-5,20,38,36,97950,16763872,9362,3931,2511,2751,2294,685,Tag0,unknown
1544369937337,0,35,7.6904296875E-6,20,38,36,97950,16763872,9362,3931,2511,2751,2294,685,Tag0,unknown
1544369937337,0,12,2.63671875E-6,20,38,36,97950,16763872,9362,3931,2511,2751,2294,685,Tag0,unknown
1544369937337,0,32,7.03125E-6,20,38,36,97950,16763872,9362,3931,2511,2751,2294,685,Tag0,unknown
1544369937337,0,45,9.8876953125E-6,20,38,36,97950,16763872,9362,3931,2511,2751,2294,685,Tag0,unknown
1544369937337,0,33,7.2509765625E-6,20,38,36,97950,16763872,9362,3931,2511,2751,2294,685,Tag0,unknown
1544369937338,0,34,7.4707031250000005E-6,20,38,36,97950,16763872,9362,3931,2511,2751,2294,685,Tag0,unknown
1544369937338,0,37,8.1298828125E-6,20,38,36,97950,16763872,9362,3931,2511,2751,2294,685,Tag0,unknown
1544369937349,0,25,5.4931640625E-6,20,38,36,97950,16763872,9362,3931,2511,2751,2294,685,Tag0,unknown
1544369937349,0,17,3.7353515625000003E-6,20,38,36,97950,16763872,9362,3931,2511,2751,2294,685,Tag0,unknown
1544369937349,0,26,5.712890625E-6,20,38,36,97950,16763872,9362,3931,2511,2751,2294,685,Tag0,unknown
1544369937350,0,36,7.91015625E-6,20,38,36,97950,16763872,9362,3931,2511,2751,2294,685,Tag0,unknown
1544369937350,0,55,1.20849609375E-5,20,38,36,97950,16763872,9362,3931,2511,2751,2294,685,Tag0,unknown
1544369937413,0,84,1.8457031250000004E-5,20,38,36,97950,16763872,9362,3931,2511,2751,2294,685,Tag0,unknown
1544369937434,0,96,2.109375E-5,20,38,36,97950,16763872,9362,3931,2511,2751,2294,685,Tag0,unknown
1544369937435,0,76,1.669921875E-5,20,38,36,97950,16763872,9362,3931,2511,2751,2294,685,Tag0,unknown
1544369937435,0,56,1.23046875E-5,20,38,36,97950,16763872,9362,3931,2511,2751,2294,685,Tag0,unknown
1544369937436,0,41,9.008789062499999E-6,20,38,36,97950,16763872,9362,3931,2511,2751,2294,685,Tag0,unknown
1544369937436,0,21,4.614257812500001E-6,20,38,36,97950,16763872,9362,3931,2511,2751,2294,685,Tag0,unknown
1544369937436,0,21,4.614257812500001E-6,20,38,36,97950,16763872,9362,3931,2511,2751,2294,685,Tag0,unknown
1544369937437,0,55,1.20849609375E-5,20,38,36,97950,16763872,9362,3931,2511,2751,2294,685,Tag0,unknown
1544369937437,0,74,1.6259765625E-5,20,38,36,97950,16763872,9362,3931,2511,2751,2294,685,Tag0,unknown
1544369937437,0,57,1.2524414062500001E-5,20,38,36,97950,16763872,9362,3931,2511,2751,2294,685,Tag0,unknown
1544369937438,0,35,7.6904296875E-6,20,38,36,97950,16763872,9362,3931,2511,2751,2294,685,Tag0,unknown
1544369937438,0,19,4.1748046875E-6,20,38,36,97950,16763872,9362,3931,2511,2751,2294,685,Tag0,unknown
1544369937438,0,6,1.318359375E-6,20,38,36,97950,16763872,9362,3931,2511,2751,2294,685,Tag0,unknown
1544369937439,0,10,2.197265625E-6,20,38,36,97950,16763872,9362,3931,2511,2751,2294,685,Tag0,unknown
1544369937439,0,32,7.03125E-6,20,38,36,97950,16763872,9362,3931,2511,2751,2294,685,Tag0,unknown
1544369937439,0,39,8.5693359375E-6,20,38,36,97950,16763872,9362,3931,2511,2751,2294,685,Tag0,unknown
1544369937440,0,36,7.91015625E-6,20,38,36,97950,16763872,9362,3931,2511,2751,2294,685,Tag0,unknown
1544369937440,0,42,9.228515625000002E-6,20,38,36,97950,16763872,9362,3931,2511,2751,2294,685,Tag0,unknown
1544369937440,0,34,7.4707031250000005E-6,20,38,36,97950,16763872,9362,3931,2511,2751,2294,685,Tag0,unknown
1544369937440,0,16,3.515625E-6,20,38,36,97950,16763872,9362,3931,2511,2751,2294,685,Tag0,unknown
1544369937441,0,20,4.39453125E-6,20,38,36,97950,16763872,9362,3931,2511,2751,2294,685,Tag0,unknown
1544369937441,0,27,5.9326171875000005E-6,20,38,36,97950,16763872,9362,3931,2511,2751,2294,685,Tag0,unknown
1544369937441,0,12,2.63671875E-6,20,38,36,97950,16763872,9362,3931,2511,2751,2294,685,Tag0,unknown
1544369937453,0,5,1.0986328125E-6,20,38,36,97950,16763872,9362,3931,2511,2751,2294,685,Tag0,unknown
1544369937453,0,18,3.955078125E-6,20,38,36,97950,16763872,9362,3931,2511,2751,2294,685,Tag0,unknown
1544369937453,0,10,2.197265625E-6,20,38,36,97950,16763872,9362,3931,2511,2751,2294,685,Tag0,unknown
1544369937454,0,-273,-5.998535156250001E-5,20,38,36,97950,16763872,9362,3931,2511,2751,2294,685,Tag0,unknown
1544369937454,0,-273,-5.998535156250001E-5,20,38,36,97950,16763872,9362,3931,2511,2751,2294,685,Tag0,unknown
1544369937454,0,6,1.318359375E-6,20,38,36,97950,16763872,9362,3931,2511,2751,2294,685,Tag0,unknown
1544369937454,0,16,3.515625E-6,20,38,36,97950,16763872,9362,3931,2511,2751,2294,685,Tag0,unknown
1544369937454,0,12,2.63671875E-6,20,38,36,97950,16763872,9362,3931,2511,2751,2294,685,Tag0,unknown
1544369937454,0,6,1.318359375E-6,20,38,36,97950,16763872,9362,3931,2511,2751,2294,685,Tag0,unknown
1544369937454,0,-257,-5.64697265625E-5,20,38,36,97950,16763872,9362,3931,2511,2751,2294,685,Tag0,unknown
1544369937455,0,5,1.0986328125E-6,20,38,36,97950,16763872,9362,3931,2511,2751,2294,685,Tag0,unknown
1544369937455,0,37,8.1298828125E-6,20,38,36,97950,16763872,9362,3931,2511,2751,2294,685,Tag0,unknown
1544369937455,0,55,1.20849609375E-5,20,38,36,97950,16763872,9362,3931,2511,2751,2294,685,Tag0,unknown
1544369937484,0,41,9.008789062499999E-6,20,38,36,97950,16763872,9362,3931,2511,2751,2294,685,Tag0,unknown
1544369937499,0,32,7.03125E-6,20,38,36,97950,16763872,9362,3931,2511,2751,2294,685,Tag0,unknown
1544369937504,0,34,7.4707031250000005E-6,20,38,36,97950,16763872,9362,3931,2511,2751,2294,685,Tag0,unknown
1544369937504,0,33,7.2509765625E-6,20,38,36,97950,16763872,9362,3931,2511,2751,2294,685,Tag0,unknown
1544369937504,0,40,8.7890625E-6,20,38,36,97950,16763872,9362,3931,2511,2751,2294,685,Tag0,unknown
1544369937505,0,59,1.29638671875E-5,20,38,36,97950,16763872,9362,3931,2511,2751,2294,685,Tag0,unknown
1544369937505,0,56,1.23046875E-5,20,38,36,97950,16763872,9362,3931,2511,2751,2294,685,Tag0,unknown
1544369937505,0,27,5.9326171875000005E-6,20,38,36,97950,16763872,9362,3931,2511,2751,2294,685,Tag0,unknown
1544369937570,0,25,5.4931640625E-6,20,38,36,97950,16763872,9362,3931,2511,2751,2294,685,Tag0,unknown
1544369937582,0,49,1.07666015625E-5,20,38,36,97950,16763872,9362,3931,2511,2751,2294,685,Tag0,unknown
1544369937582,0,55,1.20849609375E-5,20,38,36,97950,16763872,9362,3931,2511,2751,2294,685,Tag0,unknown
1544369937582,0,45,9.8876953125E-6,20,38,36,97950,16763872,9362,3931,2511,2751,2294,685,Tag0,unknown
1544369937582,0,48,1.0546875E-5,20,38,36,97950,16763872,9362,3931,2511,2751,2294,685,Tag0,unknown
1544369937583,0,39,8.5693359375E-6,20,38,36,97950,16763872,9362,3931,2511,2751,2294,685,Tag0,unknown
1544369937583,0,29,6.3720703125E-6,20,38,36,97950,16763872,9362,3931,2511,2751,2294,685,Tag0,unknown
1544369937583,0,54,1.1865234375000001E-5,20,38,36,97950,16763872,9362,3931,2511,2751,2294,685,Tag0,unknown
1544369937583,0,83,1.82373046875E-5,20,38,36,97950,16763872,9362,3931,2511,2751,2294,685,Tag0,unknown
1544369937583,0,83,1.82373046875E-5,20,38,36,97950,16763872,9362,3931,2511,2751,2294,685,Tag0,unknown
1544369937583,0,76,1.669921875E-5,20,38,36,97950,16763872,9362,3931,2511,2751,2294,685,Tag0,unknown
1544369937583,0,68,1.4941406250000001E-5,20,38,36,97950,16763872,9362,3931,2511,2751,2294,685,Tag0,unknown
1544369937583,0,49,1.07666015625E-5,20,38,36,97950,16763872,9362,3931,2511,2751,2294,685,Tag0,unknown
1544369937583,0,40,8.7890625E-6,20,38,36,97950,16763872,9362,3931,2511,2751,2294,685,Tag0,unknown
1544369937583,0,41,9.008789062499999E-6,20,38,36,97950,16763872,9362,3931,2511,2751,2294,685,Tag0,unknown
1544369937583,0,28,6.15234375E-6,20,38,36,97950,16763872,9362,3931,2511,2751,2294,685,Tag0,unknown
1544369937583,0,12,2.63671875E-6,20,38,36,97950,16763872,9362,3931,2511,2751,2294,685,Tag0,unknown
1544369937584,0,26,5.712890625E-6,20,38,36,97950,16763872,9362,3931,2511,2751,2294,685,Tag0,unknown
1544369937584,0,50,1.0986328125E-5,20,38,36,97950,16763872,9362,3931,2511,2751,2294,685,Tag0,unknown
1544369937584,0,41,9.008789062499999E-6,20,38,36,97950,16763872,9362,3931,2511,2751,2294,685,Tag0,unknown
1544369937584,0,32,7.03125E-6,20,38,36,97950,16763872,9362,3931,2511,2751,2294,685,Tag0,unknown
1544369937584,0,44,9.66796875E-6,20,38,36,97950,16763872,9362,3931,2511,2751,2294,685,Tag0,unknown
1544369937584,0,55,1.20849609375E-5,20,38,36,97950,16763872,9362,3931,2511,2751,2294,685,Tag0,unknown
1544369937584,0,37,8.1298828125E-6,20,38,36,97950,16763872,9362,3931,2511,2751,2294,685,Tag0,unknown
1544369937584,0,22,4.833984375E-6,20,38,36,97950,16763872,9362,3931,2511,2751,2294,685,Tag0,unknown
1544369937584,0,13,2.8564453125E-6,20,38,36,97950,16763872,9362,3931,2511,2751,2294,685,Tag0,unknown
1544369937584,0,-260,-5.712890625E-5,20,38,36,97950,16763872,9362,3931,2511,2751,2294,685,Tag0,unknown
1544369937584,0,-262,-5.7568359375E-5,20,38,36,97950,16763872,9362,3931,2511,2751,2294,685,Tag0,unknown
1544369937585,0,-257,-5.64697265625E-5,20,38,36,97950,16763872,9362,3931,2511,2751,2294,685,Tag0,unknown
1544369937585,0,-257,-5.64697265625E-5,20,38,36,97950,16763872,9362,3931,2511,2751,2294,685,Tag0,unknown
1544369937585,0,-259,-5.69091796875E-5,20,38,36,97950,16763872,9362,3931,2511,2751,2294,685,Tag0,unknown
1544369937585,0,10,2.197265625E-6,20,38,36,97950,16763872,9362,3931,2511,2751,2294,685,Tag0,unknown
1544369937598,0,16,3.515625E-6,20,38,36,97950,16763872,9362,3931,2511,2751,2294,685,Tag0,unknown
1544369937599,0,-262,-5.7568359375E-5,20,38,36,97950,16763872,9362,3931,2511,2751,2294,685,Tag0,unknown
1544369937599,0,1,2.197265625E-7,20,38,36,97950,16763872,9362,3931,2511,2751,2294,685,Tag0,unknown
1544369937599,0,35,7.6904296875E-6,20,38,36,97950,16763872,9362,3931,2511,2751,2294,685,Tag0,unknown
1544369937599,0,34,7.4707031250000005E-6,20,38,36,97950,16763872,9362,3931,2511,2751,2294,685,Tag0,unknown
1544369937599,0,16,3.515625E-6,20,38,36,97950,16763872,9362,3931,2511,2751,2294,685,Tag0,unknown
1544369937599,0,26,5.712890625E-6,20,38,36,97950,16763872,9362,3931,2511,2751,2294,685,Tag0,unknown
1544369937599,0,54,1.1865234375000001E-5,20,38,36,97950,16763872,9362,3931,2511,2751,2294,685,Tag0,unknown
1544369937599,0,56,1.23046875E-5,20,38,36,97950,16763872,9362,3931,2511,2751,2294,685,Tag0,unknown
1544369937599,0,44,9.66796875E-6,20,38,36,97950,16763872,9362,3931,2511,2751,2294,685,Tag0,unknown
1544369937600,0,35,7.6904296875E-6,20,38,36,97950,16763872,9362,3931,2511,2751,2294,685,Tag0,unknown
1544369937600,0,20,4.39453125E-6,20,38,36,97950,16763872,9362,3931,2511,2751,2294,685,Tag0,unknown
1544369937600,0,5,1.0986328125E-6,20,38,36,97950,16763872,9362,3931,2511,2751,2294,685,Tag0,unknown
1544369937600,0,8,1.7578125E-6,20,38,36,97950,16763872,9362,3931,2511,2751,2294,685,Tag0,unknown
1544369937600,0,7,1.5380859375E-6,20,38,36,97950,16763872,9362,3931,2511,2751,2294,685,Tag0,unknown
1544369937600,0,-262,-5.7568359375E-5,20,38,36,97950,16763872,9362,3931,2511,2751,2294,685,Tag0,unknown
1544369937600,0,-257,-5.64697265625E-5,20,38,36,97950,16763872,9362,3931,2511,2751,2294,685,Tag0,unknown
1544369937600,0,35,7.6904296875E-6,20,38,36,97950,16763872,9362,3931,2511,2751,2294,685,Tag0,unknown
1544369937603,0,57,1.2524414062500001E-5,37,37,36,26620,22941,2859,17270,7577,10477,2713,4235,Tag0,unknown
1544369937603,0,55,1.20849609375E-5,37,37,36,26620,22941,2859,17270,7577,10477,2713,4235,Tag0,unknown
1544369937603,0,49,1.07666015625E-5,37,37,36,26620,22941,2859,17270,7577,10477,2713,4235,Tag0,unknown
1544369937603,0,28,6.15234375E-6,37,37,36,26620,22941,2859,17270,7577,10477,2713,4235,Tag0,unknown
1544369937603,0,8,1.7578125E-6,37,37,36,26620,22941,2859,17270,7577,10477,2713,4235,Tag0,unknown
1544369937603,0,16,3.515625E-6,37,37,36,26620,22941,2859,17270,7577,10477,2713,4235,Tag0,unknown
1544369937603,0,35,7.6904296875E-6,37,37,36,26620,22941,2859,17270,7577,10477,2713,4235,Tag0,unknown
1544369937603,0,37,8.1298828125E-6,37,37,36,26620,22941,2859,17270,7577,10477,2713,4235,Tag0,unknown
1544369937603,0,33,7.2509765625E-6,37,37,36,26620,22941,2859,17270,7577,10477,2713,4235,Tag0,unknown
1544369937604,0,28,6.15234375E-6,37,37,36,26620,22941,2859,17270,7577,10477,2713,4235,Tag0,unknown
1544369937618,0,23,5.0537109375E-6,37,37,36,26620,22941,2859,17270,7577,10477,2713,4235,Tag0,unknown
1544369937618,0,22,4.833984375E-6,37,37,36,26620,22941,2859,17270,7577,10477,2713,4235,Tag0,unknown
1544369937618,0,37,8.1298828125E-6,37,37,36,26620,22941,2859,17270,7577,10477,2713,4235,Tag0,unknown
1544369937619,0,40,8.7890625E-6,37,37,36,26620,22941,2859,17270,7577,10477,2713,4235,Tag0,unknown
1544369937619,0,21,4.614257812500001E-6,37,37,36,26620,22941,2859,17270,7577,10477,2713,4235,Tag0,unknown
1544369937619,0,20,4.39453125E-6,37,37,36,26620,22941,2859,17270,7577,10477,2713,4235,Tag0,unknown
1544369937619,0,45,9.8876953125E-6,37,37,36,26620,22941,2859,17270,7577,10477,2713,4235,Tag0,unknown
1544369937619,0,60,1.318359375E-5,37,37,36,26620,22941,2859,17270,7577,10477,2713,4235,Tag0,unknown
1544369937619,0,68,1.4941406250000001E-5,37,37,36,26620,22941,2859,17270,7577,10477,2713,4235,Tag0,unknown
1544369937620,0,74,1.6259765625E-5,37,37,36,26620,22941,2859,17270,7577,10477,2713,4235,Tag0,unknown
1544369937620,0,68,1.4941406250000001E-5,37,37,36,26620,22941,2859,17270,7577,10477,2713,4235,Tag0,unknown
1544369937620,0,45,9.8876953125E-6,37,37,36,26620,22941,2859,17270,7577,10477,2713,4235,Tag0,unknown
1544369937620,0,48,1.0546875E-5,37,37,36,26620,22941,2859,17270,7577,10477,2713,4235,Tag0,unknown
1544369937620,0,53,1.1645507812500002E-5,37,37,36,26620,22941,2859,17270,7577,10477,2713,4235,Tag0,unknown
1544369937620,0,38,8.349609375E-6,37,37,36,26620,22941,2859,17270,7577,10477,2713,4235,Tag0,unknown
1544369937621,0,26,5.712890625E-6,37,37,36,26620,22941,2859,17270,7577,10477,2713,4235,Tag0,unknown
1544369937621,0,32,7.03125E-6,37,37,36,26620,22941,2859,17270,7577,10477,2713,4235,Tag0,unknown
1544369937621,0,8,1.7578125E-6,37,37,36,26620,22941,2859,17270,7577,10477,2713,4235,Tag0,unknown
1544369937621,0,-262,-5.7568359375E-5,37,37,36,26620,22941,2859,17270,7577,10477,2713,4235,Tag0,unknown
1544369937621,0,26,5.712890625E-6,37,37,36,26620,22941,2859,17270,7577,10477,2713,4235,Tag0,unknown
1544369937621,0,65,1.42822265625E-5,37,37,36,26620,22941,2859,17270,7577,10477,2713,4235,Tag0,unknown
1544369937622,0,72,1.58203125E-5,37,37,36,26620,22941,2859,17270,7577,10477,2713,4235,Tag0,unknown
1544369937622,0,56,1.23046875E-5,37,37,36,26620,22941,2859,17270,7577,10477,2713,4235,Tag0,unknown
1544369937622,0,33,7.2509765625E-6,37,37,36,26620,22941,2859,17270,7577,10477,2713,4235,Tag0,unknown
1544369937622,0,22,4.833984375E-6,37,37,36,26620,22941,2859,17270,7577,10477,2713,4235,Tag0,unknown
1544369937622,0,28,6.15234375E-6,37,37,36,26620,22941,2859,17270,7577,10477,2713,4235,Tag0,unknown
1544369937622,0,52,1.142578125E-5,37,37,36,26620,22941,2859,17270,7577,10477,2713,4235,Tag0,unknown
1544369937661,0,60,1.318359375E-5,37,37,36,26620,22941,2859,17270,7577,10477,2713,4235,Tag0,unknown
1544369937665,0,55,1.20849609375E-5,37,37,36,26620,22941,2859,17270,7577,10477,2713,4235,Tag0,unknown
1544369937666,0,56,1.23046875E-5,37,37,36,26620,22941,2859,17270,7577,10477,2713,4235,Tag0,unknown
1544369937666,0,59,1.29638671875E-5,37,37,36,26620,22941,2859,17270,7577,10477,2713,4235,Tag0,unknown
1544369937666,0,60,1.318359375E-5,37,37,36,26620,22941,2859,17270,7577,10477,2713,4235,Tag0,unknown
1544369937666,0,67,1.4721679687500002E-5,37,37,36,26620,22941,2859,17270,7577,10477,2713,4235,Tag0,unknown
1544369937746,0,66,1.4501953125E-5,37,37,36,26620,22941,2859,17270,7577,10477,2713,4235,Tag0,unknown
1544369937746,0,52,1.142578125E-5,37,37,36,26620,22941,2859,17270,7577,10477,2713,4235,Tag0,unknown
1544369937746,0,40,8.7890625E-6,37,37,36,26620,22941,2859,17270,7577,10477,2713,4235,Tag0,unknown
1544369937746,0,44,9.66796875E-6,37,37,36,26620,22941,2859,17270,7577,10477,2713,4235,Tag0,unknown
1544369937746,0,42,9.228515625000002E-6,37,37,36,26620,22941,2859,17270,7577,10477,2713,4235,Tag0,unknown
1544369937747,0,25,5.4931640625E-6,37,37,36,26620,22941,2859,17270,7577,10477,2713,4235,Tag0,unknown
1544369937747,0,10,2.197265625E-6,37,37,36,26620,22941,2859,17270,7577,10477,2713,4235,Tag0,unknown
1544369937747,0,10,2.197265625E-6,37,37,36,26620,22941,2859,17270,7577,10477,2713,4235,Tag0,unknown
1544369937747,0,16,3.515625E-6,37,37,36,26620,22941,2859,17270,7577,10477,2713,4235,Tag0,unknown
1544369937747,0,27,5.9326171875000005E-6,37,37,36,26620,22941,2859,17270,7577,10477,2713,4235,Tag0,unknown
1544369937747,0,50,1.0986328125E-5,37,37,36,26620,22941,2859,17270,7577,10477,2713,4235,Tag0,unknown
1544369937748,0,50,1.0986328125E-5,37,37,36,26620,22941,2859,17270,7577,10477,2713,4235,Tag0,unknown
1544369937748,0,40,8.7890625E-6,37,37,36,26620,22941,2859,17270,7577,10477,2713,4235,Tag0,unknown
1544369937748,0,35,7.6904296875E-6,37,37,36,26620,22941,2859,17270,7577,10477,2713,4235,Tag0,unknown
1544369937748,0,23,5.0537109375E-6,37,37,36,26620,22941,2859,17270,7577,10477,2713,4235,Tag0,unknown
1544369937748,0,3,6.591796875E-7,37,37,36,26620,22941,2859,17270,7577,10477,2713,4235,Tag0,unknown
1544369937748,0,3,6.591796875E-7,37,37,36,26620,22941,2859,17270,7577,10477,2713,4235,Tag0,unknown
1544369937748,0,24,5.2734375E-6,37,37,36,26620,22941,2859,17270,7577,10477,2713,4235,Tag0,unknown
1544369937748,0,17,3.7353515625000003E-6,37,37,36,26620,22941,2859,17270,7577,10477,2713,4235,Tag0,unknown
1544369937748,0,-275,-6.04248046875E-5,37,37,36,26620,22941,2859,17270,7577,10477,2713,4235,Tag0,unknown
1544369937748,0,-300,-6.591796875E-5,37,37,36,26620,22941,2859,17270,7577,10477,2713,4235,Tag0,unknown
1544369937748,0,-312,-6.85546875E-5,37,37,36,26620,22941,2859,17270,7577,10477,2713,4235,Tag0,unknown
1544369937749,0,-308,-6.767578125E-5,37,37,36,26620,22941,2859,17270,7577,10477,2713,4235,Tag0,unknown
1544369937749,0,-279,-6.13037109375E-5,37,37,36,26620,22941,2859,17270,7577,10477,2713,4235,Tag0,unknown
1544369937749,0,12,2.63671875E-6,37,37,36,26620,22941,2859,17270,7577,10477,2713,4235,Tag0,unknown
1544369937749,0,24,5.2734375E-6,37,37,36,26620,22941,2859,17270,7577,10477,2713,4235,Tag0,unknown
1544369937750,0,21,4.614257812500001E-6,37,37,36,26620,22941,2859,17270,7577,10477,2713,4235,Tag0,unknown
1544369937750,0,25,5.4931640625E-6,37,37,36,26620,22941,2859,17270,7577,10477,2713,4235,Tag0,unknown
1544369937750,0,49,1.07666015625E-5,37,37,36,26620,22941,2859,17270,7577,10477,2713,4235,Tag0,unknown
1544369937750,0,66,1.4501953125E-5,37,37,36,26620,22941,2859,17270,7577,10477,2713,4235,Tag0,unknown
1544369937750,0,74,1.6259765625E-5,37,37,36,26620,22941,2859,17270,7577,10477,2713,4235,Tag0,unknown
1544369937750,0,80,1.7578125E-5,37,37,36,26620,22941,2859,17270,7577,10477,2713,4235,Tag0,unknown
1544369937750,0,80,1.7578125E-5,37,37,36,26620,22941,2859,17270,7577,10477,2713,4235,Tag0,unknown
1544369937751,0,83,1.82373046875E-5,37,37,36,26620,22941,2859,17270,7577,10477,2713,4235,Tag0,unknown
1544369937751,0,81,1.77978515625E-5,37,37,36,26620,22941,2859,17270,7577,10477,2713,4235,Tag0,unknown
1544369937751,0,60,1.318359375E-5,37,37,36,26620,22941,2859,17270,7577,10477,2713,4235,Tag0,unknown
1544369937751,0,42,9.228515625000002E-6,37,37,36,26620,22941,2859,17270,7577,10477,2713,4235,Tag0,unknown
1544369937751,0,52,1.142578125E-5,37,37,36,26620,22941,2859,17270,7577,10477,2713,4235,Tag0,unknown
1544369937751,0,71,1.56005859375E-5,37,37,36,26620,22941,2859,17270,7577,10477,2713,4235,Tag0,unknown
1544369937751,0,89,1.95556640625E-5,37,37,36,26620,22941,2859,17270,7577,10477,2713,4235,Tag0,unknown
1544369937751,0,108,2.3730468750000002E-5,37,37,36,26620,22941,2859,17270,7577,10477,2713,4235,Tag0,unknown
1544369937752,0,106,2.3291015625000003E-5,37,37,36,26620,22941,2859,17270,7577,10477,2713,4235,Tag0,unknown
1544369937752,0,70,1.5380859375E-5,37,37,36,26620,22941,2859,17270,7577,10477,2713,4235,Tag0,unknown
1544369937752,0,49,1.07666015625E-5,37,37,36,26620,22941,2859,17270,7577,10477,2713,4235,Tag0,unknown
1544369937752,0,73,1.6040039062500002E-5,37,37,36,26620,22941,2859,17270,7577,10477,2713,4235,Tag0,unknown
1544369937752,0,93,2.04345703125E-5,37,37,36,26620,22941,2859,17270,7577,10477,2713,4235,Tag0,unknown
1544369937752,0,99,2.1752929687500003E-5,37,37,36,26620,22941,2859,17270,7577,10477,2713,4235,Tag0,unknown
1544369937752,0,90,1.9775390625E-5,37,37,36,26620,22941,2859,17270,7577,10477,2713,4235,Tag0,unknown
1544369937752,0,84,1.8457031250000004E-5,37,37,36,26620,22941,2859,17270,7577,10477,2713,4235,Tag0,unknown
1544369937752,0,74,1.6259765625E-5,37,37,36,26620,22941,2859,17270,7577,10477,2713,4235,Tag0,unknown
1544369937753,0,59,1.29638671875E-5,37,37,36,26620,22941,2859,17270,7577,10477,2713,4235,Tag0,unknown
1544369937753,0,40,8.7890625E-6,37,37,36,26620,22941,2859,17270,7577,10477,2713,4235,Tag0,unknown
1544369937753,0,16,3.515625E-6,37,37,36,26620,22941,2859,17270,7577,10477,2713,4235,Tag0,unknown
1544369937753,0,3,6.591796875E-7,37,37,36,26620,22941,2859,17270,7577,10477,2713,4235,Tag0,unknown
1544369937753,0,21,4.614257812500001E-6,37,37,36,26620,22941,2859,17270,7577,10477,2713,4235,Tag0,unknown
1544369937753,0,48,1.0546875E-5,37,37,36,26620,22941,2859,17270,7577,10477,2713,4235,Tag0,unknown
1544369937753,0,39,8.5693359375E-6,37,37,36,26620,22941,2859,17270,7577,10477,2713,4235,Tag0,unknown
1544369937754,0,28,6.15234375E-6,37,37,36,26620,22941,2859,17270,7577,10477,2713,4235,Tag0,unknown
1544369937754,0,44,9.66796875E-6,37,37,36,26620,22941,2859,17270,7577,10477,2713,4235,Tag0,unknown
1544369937754,0,60,1.318359375E-5,37,37,36,26620,22941,2859,17270,7577,10477,2713,4235,Tag0,unknown
1544369937754,0,50,1.0986328125E-5,37,37,36,26620,22941,2859,17270,7577,10477,2713,4235,Tag0,unknown
1544369937754,0,42,9.228515625000002E-6,37,37,36,26620,22941,2859,17270,7577,10477,2713,4235,Tag0,unknown
1544369937754,0,40,8.7890625E-6,37,37,36,26620,22941,2859,17270,7577,10477,2713,4235,Tag0,unknown
1544369937754,0,26,5.712890625E-6,37,37,36,26620,22941,2859,17270,7577,10477,2713,4235,Tag0,unknown
1544369937764,0,22,4.833984375E-6,37,37,36,26620,22941,2859,17270,7577,10477,2713,4235,Tag0,unknown
1544369937781,0,38,8.349609375E-6,37,37,36,26620,22941,2859,17270,7577,10477,2713,4235,Tag0,unknown
1544369937782,0,42,9.228515625000002E-6,37,37,36,26620,22941,2859,17270,7577,10477,2713,4235,Tag0,unknown
1544369937782,0,41,9.008789062499999E-6,37,37,36,26620,22941,2859,17270,7577,10477,2713,4235,Tag0,unknown
1544369937782,0,39,8.5693359375E-6,37,37,36,26620,22941,2859,17270,7577,10477,2713,4235,Tag0,unknown
1544369937782,0,33,7.2509765625E-6,37,37,36,26620,22941,2859,17270,7577,10477,2713,4235,Tag0,unknown
1544369937782,0,38,8.349609375E-6,37,37,36,26620,22941,2859,17270,7577,10477,2713,4235,Tag0,unknown
1544369937782,0,54,1.1865234375000001E-5,37,37,36,26620,22941,2859,17270,7577,10477,2713,4235,Tag0,unknown
1544369937782,0,50,1.0986328125E-5,37,37,36,26620,22941,2859,17270,7577,10477,2713,4235,Tag0,unknown
1544369937782,0,22,4.833984375E-6,37,37,36,26620,22941,2859,17270,7577,10477,2713,4235,Tag0,unknown
1544369937782,0,20,4.39453125E-6,37,37,36,26620,22941,2859,17270,7577,10477,2713,4235,Tag0,unknown
1544369937783,0,56,1.23046875E-5,37,37,36,26620,22941,2859,17270,7577,10477,2713,4235,Tag0,unknown
1544369937783,0,74,1.6259765625E-5,37,37,36,26620,22941,2859,17270,7577,10477,2713,4235,Tag0,unknown
1544369937783,0,69,1.51611328125E-5,37,37,36,26620,22941,2859,17270,7577,10477,2713,4235,Tag0,unknown
1544369937783,0,67,1.4721679687500002E-5,37,37,36,26620,22941,2859,17270,7577,10477,2713,4235,Tag0,unknown
1544369937783,0,76,1.669921875E-5,37,37,36,26620,22941,2859,17270,7577,10477,2713,4235,Tag0,unknown
1544369937783,0,83,1.82373046875E-5,37,37,36,26620,22941,2859,17270,7577,10477,2713,4235,Tag0,unknown
1544369937783,0,86,1.8896484375000003E-5,37,37,36,26620,22941,2859,17270,7577,10477,2713,4235,Tag0,unknown
1544369937783,0,88,1.93359375E-5,37,37,36,26620,22941,2859,17270,7577,10477,2713,4235,Tag0,unknown
1544369937783,0,60,1.318359375E-5,37,37,36,26620,22941,2859,17270,7577,10477,2713,4235,Tag0,unknown
1544369937783,0,24,5.2734375E-6,37,37,36,26620,22941,2859,17270,7577,10477,2713,4235,Tag0,unknown
1544369937783,0,13,2.8564453125E-6,37,37,36,26620,22941,2859,17270,7577,10477,2713,4235,Tag0,unknown
1544369937784,0,22,4.833984375E-6,37,37,36,26620,22941,2859,17270,7577,10477,2713,4235,Tag0,unknown
1544369937784,0,32,7.03125E-6,37,37,36,26620,22941,2859,17270,7577,10477,2713,4235,Tag0,unknown
1544369937799,0,40,8.7890625E-6,37,37,36,26620,22941,2859,17270,7577,10477,2713,4235,Tag0,unknown
1544369937799,0,57,1.2524414062500001E-5,37,37,36,26620,22941,2859,17270,7577,10477,2713,4235,Tag0,unknown
1544369937799,0,53,1.1645507812500002E-5,37,37,36,26620,22941,2859,17270,7577,10477,2713,4235,Tag0,unknown
1544369937799,0,40,8.7890625E-6,37,37,36,26620,22941,2859,17270,7577,10477,2713,4235,Tag0,unknown
1544369937800,0,38,8.349609375E-6,37,37,36,26620,22941,2859,17270,7577,10477,2713,4235,Tag0,unknown
1544369937800,0,36,7.91015625E-6,37,37,36,26620,22941,2859,17270,7577,10477,2713,4235,Tag0,unknown
1544369937800,0,25,5.4931640625E-6,37,37,36,26620,22941,2859,17270,7577,10477,2713,4235,Tag0,unknown
1544369937800,0,26,5.712890625E-6,37,37,36,26620,22941,2859,17270,7577,10477,2713,4235,Tag0,unknown
1544369937800,0,32,7.03125E-6,37,37,36,26620,22941,2859,17270,7577,10477,2713,4235,Tag0,unknown
1544369937800,0,18,3.955078125E-6,37,37,36,26620,22941,2859,17270,7577,10477,2713,4235,Tag0,unknown
1544369937816,0,10,2.197265625E-6,37,37,36,26620,22941,2859,17270,7577,10477,2713,4235,Tag0,unknown
1544369937817,0,20,4.39453125E-6,37,37,36,26620,22941,2859,17270,7577,10477,2713,4235,Tag0,unknown
1544369937817,0,22,4.833984375E-6,37,37,36,26620,22941,2859,17270,7577,10477,2713,4235,Tag0,unknown
1544369937817,0,7,1.5380859375E-6,37,37,36,26620,22941,2859,17270,7577,10477,2713,4235,Tag0,unknown
1544369937817,0,9,1.9775390625E-6,37,37,36,26620,22941,2859,17270,7577,10477,2713,4235,Tag0,unknown
1544369937817,0,23,5.0537109375E-6,37,37,36,26620,22941,2859,17270,7577,10477,2713,4235,Tag0,unknown
1544369937818,0,32,7.03125E-6,37,37,36,26620,22941,2859,17270,7577,10477,2713,4235,Tag0,unknown
1544369937818,0,35,7.6904296875E-6,37,37,36,26620,22941,2859,17270,7577,10477,2713,4235,Tag0,unknown
1544369937833,0,39,8.5693359375E-6,37,37,36,26620,22941,2859,17270,7577,10477,2713,4235,Tag0,unknown
1544369937833,0,28,6.15234375E-6,37,37,36,26620,22941,2859,17270,7577,10477,2713,4235,Tag0,unknown
1544369937834,0,19,4.1748046875E-6,37,37,36,26620,22941,2859,17270,7577,10477,2713,4235,Tag0,unknown
1544369937834,0,32,7.03125E-6,37,37,36,26620,22941,2859,17270,7577,10477,2713,4235,Tag0,unknown
1544369937834,0,41,9.008789062499999E-6,37,37,36,26620,22941,2859,17270,7577,10477,2713,4235,Tag0,unknown
1544369937835,0,34,7.4707031250000005E-6,37,37,36,26620,22941,2859,17270,7577,10477,2713,4235,Tag0,unknown
1544369937835,0,44,9.66796875E-6,37,37,36,26620,22941,2859,17270,7577,10477,2713,4235,Tag0,unknown
1544369937835,0,72,1.58203125E-5,37,37,36,26620,22941,2859,17270,7577,10477,2713,4235,Tag0,unknown
1544369937835,0,71,1.56005859375E-5,37,37,36,26620,22941,2859,17270,7577,10477,2713,4235,Tag0,unknown
1544369937852,0,39,8.5693359375E-6,37,37,36,26620,22941,2859,17270,7577,10477,2713,4235,Tag0,unknown
1544369937853,0,18,3.955078125E-6,37,37,36,26620,22941,2859,17270,7577,10477,2713,4235,Tag0,unknown
1544369937853,0,-258,-5.6689453125000004E-5,37,37,36,26620,22941,2859,17270,7577,10477,2713,4235,Tag0,unknown
1544369937853,0,-261,-5.73486328125E-5,37,37,36,26620,22941,2859,17270,7577,10477,2713,4235,Tag0,unknown
1544369937853,0,5,1.0986328125E-6,37,37,36,26620,22941,2859,17270,7577,10477,2713,4235,Tag0,unknown
1544369937853,0,13,2.8564453125E-6,37,37,36,26620,22941,2859,17270,7577,10477,2713,4235,Tag0,unknown
1544369937853,0,4,8.7890625E-7,37,37,36,26620,22941,2859,17270,7577,10477,2713,4235,Tag0,unknown
1544369937854,0,10,2.197265625E-6,37,37,36,26620,22941,2859,17270,7577,10477,2713,4235,Tag0,unknown
1544369937866,0,34,7.4707031250000005E-6,37,37,36,26620,22941,2859,17270,7577,10477,2713,4235,Tag0,unknown
1544369937866,0,33,7.2509765625E-6,37,37,36,26620,22941,2859,17270,7577,10477,2713,4235,Tag0,unknown
1544369937866,0,18,3.955078125E-6,37,37,36,26620,22941,2859,17270,7577,10477,2713,4235,Tag0,unknown
1544369937867,0,20,4.39453125E-6,37,37,36,26620,22941,2859,17270,7577,10477,2713,4235,Tag0,unknown
1544369937867,0,41,9.008789062499999E-6,37,37,36,26620,22941,2859,17270,7577,10477,2713,4235,Tag0,unknown
1544369937867,0,59,1.29638671875E-5,37,37,36,26620,22941,2859,17270,7577,10477,2713,4235,Tag0,unknown
1544369937868,0,80,1.7578125E-5,37,37,36,26620,22941,2859,17270,7577,10477,2713,4235,Tag0,unknown
1544369937868,0,82,1.8017578124999998E-5,37,37,36,26620,22941,2859,17270,7577,10477,2713,4235,Tag0,unknown
1544369937869,0,59,1.29638671875E-5,37,37,36,26620,22941,2859,17270,7577,10477,2713,4235,Tag0,unknown
1544369937884,0,48,1.0546875E-5,37,37,36,26620,22941,2859,17270,7577,10477,2713,4235,Tag0,unknown
1544369937884,0,51,1.1206054687499999E-5,37,37,36,26620,22941,2859,17270,7577,10477,2713,4235,Tag0,unknown
1544369937884,0,54,1.1865234375000001E-5,37,37,36,26620,22941,2859,17270,7577,10477,2713,4235,Tag0,unknown
1544369937885,0,35,7.6904296875E-6,37,37,36,26620,22941,2859,17270,7577,10477,2713,4235,Tag0,unknown
1544369937885,0,20,4.39453125E-6,37,37,36,26620,22941,2859,17270,7577,10477,2713,4235,Tag0,unknown
1544369937885,0,25,5.4931640625E-6,37,37,36,26620,22941,2859,17270,7577,10477,2713,4235,Tag0,unknown
1544369937886,0,40,8.7890625E-6,37,37,36,26620,22941,2859,17270,7577,10477,2713,4235,Tag0,unknown
1544369937886,0,58,1.2744140625E-5,37,37,36,26620,22941,2859,17270,7577,10477,2713,4235,Tag0,unknown
1544369937887,0,68,1.4941406250000001E-5,37,37,36,26620,22941,2859,17270,7577,10477,2713,4235,Tag0,unknown
1544369937900,0,52,1.142578125E-5,37,37,36,26620,22941,2859,17270,7577,10477,2713,4235,Tag0,unknown
1544369937901,0,36,7.91015625E-6,37,37,36,26620,22941,2859,17270,7577,10477,2713,4235,Tag0,unknown
1544369937901,0,41,9.008789062499999E-6,37,37,36,26620,22941,2859,17270,7577,10477,2713,4235,Tag0,unknown
1544369937902,0,35,7.6904296875E-6,37,37,36,26620,22941,2859,17270,7577,10477,2713,4235,Tag0,unknown
1544369937902,0,4,8.7890625E-7,37,37,36,26620,22941,2859,17270,7577,10477,2713,4235,Tag0,unknown
1544369937903,0,-268,-5.8886718750000006E-5,37,37,36,26620,22941,2859,17270,7577,10477,2713,4235,Tag0,unknown
1544369937903,0,-260,-5.712890625E-5,37,37,36,26620,22941,2859,17270,7577,10477,2713,4235,Tag0,unknown
1544369937917,0,0,0.0,37,37,36,26620,22941,2859,17270,7577,10477,2713,4235,Tag0,unknown
1544369937917,0,6,1.318359375E-6,37,37,36,26620,22941,2859,17270,7577,10477,2713,4235,Tag0,unknown
1544369937918,0,19,4.1748046875E-6,37,37,36,26620,22941,2859,17270,7577,10477,2713,4235,Tag0,unknown
1544369937918,0,12,2.63671875E-6,37,37,36,26620,22941,2859,17270,7577,10477,2713,4235,Tag0,unknown
1544369937918,0,8,1.7578125E-6,37,37,36,26620,22941,2859,17270,7577,10477,2713,4235,Tag0,unknown
1544369937918,0,41,9.008789062499999E-6,37,37,36,26620,22941,2859,17270,7577,10477,2713,4235,Tag0,unknown
1544369937918,0,84,1.8457031250000004E-5,37,37,36,26620,22941,2859,17270,7577,10477,2713,4235,Tag0,unknown
1544369937919,0,86,1.8896484375000003E-5,37,37,36,26620,22941,2859,17270,7577,10477,2713,4235,Tag0,unknown
1544369937919,0,67,1.4721679687500002E-5,37,37,36,26620,22941,2859,17270,7577,10477,2713,4235,Tag0,unknown
1544369937919,0,65,1.42822265625E-5,37,37,36,26620,22941,2859,17270,7577,10477,2713,4235,Tag0,unknown
1544369937932,0,69,1.51611328125E-5,37,37,36,26620,22941,2859,17270,7577,10477,2713,4235,Tag0,unknown
1544369937933,0,71,1.56005859375E-5,37,37,36,26620,22941,2859,17270,7577,10477,2713,4235,Tag0,unknown
1544369937933,0,90,1.9775390625E-5,37,37,36,26620,22941,2859,17270,7577,10477,2713,4235,Tag0,unknown
1544369937933,0,100,2.197265625E-5,37,37,36,26620,22941,2859,17270,7577,10477,2713,4235,Tag0,unknown
1544369937933,0,70,1.5380859375E-5,37,37,36,26620,22941,2859,17270,7577,10477,2713,4235,Tag0,unknown
1544369937933,0,56,1.23046875E-5,37,37,36,26620,22941,2859,17270,7577,10477,2713,4235,Tag0,unknown
1544369937934,0,70,1.5380859375E-5,37,37,36,26620,22941,2859,17270,7577,10477,2713,4235,Tag0,unknown
1544369937934,0,68,1.4941406250000001E-5,37,37,36,26620,22941,2859,17270,7577,10477,2713,4235,Tag0,unknown
1544369937950,0,52,1.142578125E-5,37,37,36,26620,22941,2859,17270,7577,10477,2713,4235,Tag0,unknown
1544369937950,0,55,1.20849609375E-5,37,37,36,26620,22941,2859,17270,7577,10477,2713,4235,Tag0,unknown
1544369937950,0,81,1.77978515625E-5,37,37,36,26620,22941,2859,17270,7577,10477,2713,4235,Tag0,unknown
1544369937950,0,90,1.9775390625E-5,37,37,36,26620,22941,2859,17270,7577,10477,2713,4235,Tag0,unknown
1544369937951,0,87,1.91162109375E-5,37,37,36,26620,22941,2859,17270,7577,10477,2713,4235,Tag0,unknown
1544369937951,0,75,1.64794921875E-5,37,37,36,26620,22941,2859,17270,7577,10477,2713,4235,Tag0,unknown
1544369937951,0,64,1.40625E-5,37,37,36,26620,22941,2859,17270,7577,10477,2713,4235,Tag0,unknown
1544369937951,0,64,1.40625E-5,37,37,36,26620,22941,2859,17270,7577,10477,2713,4235,Tag0,unknown
1544369937951,0,85,1.86767578125E-5,37,37,36,26620,22941,2859,17270,7577,10477,2713,4235,Tag0,unknown
1544369937967,0,93,2.04345703125E-5,37,37,36,26620,22941,2859,17270,7577,10477,2713,4235,Tag0,unknown
1544369937967,0,82,1.8017578124999998E-5,37,37,36,26620,22941,2859,17270,7577,10477,2713,4235,Tag0,unknown
1544369937968,0,72,1.58203125E-5,37,37,36,26620,22941,2859,17270,7577,10477,2713,4235,Tag0,unknown
1544369937968,0,58,1.2744140625E-5,37,37,36,26620,22941,2859,17270,7577,10477,2713,4235,Tag0,unknown
1544369937968,0,39,8.5693359375E-6,37,37,36,26620,22941,2859,17270,7577,10477,2713,4235,Tag0,unknown
1544369937969,0,37,8.1298828125E-6,37,37,36,26620,22941,2859,17270,7577,10477,2713,4235,Tag0,unknown
1544369937969,0,56,1.23046875E-5,37,37,36,26620,22941,2859,17270,7577,10477,2713,4235,Tag0,unknown
1544369937969,0,64,1.40625E-5,37,37,36,26620,22941,2859,17270,7577,10477,2713,4235,Tag0,unknown
1544369937983,0,56,1.23046875E-5,37,37,36,26620,22941,2859,17270,7577,10477,2713,4235,Tag0,unknown
1544369937984,0,53,1.1645507812500002E-5,37,37,36,26620,22941,2859,17270,7577,10477,2713,4235,Tag0,unknown
1544369937984,0,51,1.1206054687499999E-5,37,37,36,26620,22941,2859,17270,7577,10477,2713,4235,Tag0,unknown
1544369937984,0,49,1.07666015625E-5,37,37,36,26620,22941,2859,17270,7577,10477,2713,4235,Tag0,unknown
1544369937984,0,53,1.1645507812500002E-5,37,37,36,26620,22941,2859,17270,7577,10477,2713,4235,Tag0,unknown
1544369937984,0,66,1.4501953125E-5,37,37,36,26620,22941,2859,17270,7577,10477,2713,4235,Tag0,unknown
1544369937985,0,68,1.4941406250000001E-5,37,37,36,26620,22941,2859,17270,7577,10477,2713,4235,Tag0,unknown
1544369937985,0,71,1.56005859375E-5,37,37,36,26620,22941,2859,17270,7577,10477,2713,4235,Tag0,unknown
1544369937985,0,86,1.8896484375000003E-5,37,37,36,26620,22941,2859,17270,7577,10477,2713,4235,Tag0,unknown
1544369937999,0,87,1.91162109375E-5,37,37,36,26620,22941,2859,17270,7577,10477,2713,4235,Tag0,unknown
1544369937999,0,65,1.42822265625E-5,37,37,36,26620,22941,2859,17270,7577,10477,2713,4235,Tag0,unknown
1544369938000,0,50,1.0986328125E-5,37,37,36,26620,22941,2859,17270,7577,10477,2713,4235,Tag0,unknown
1544369938000,0,39,8.5693359375E-6,37,37,36,26620,22941,2859,17270,7577,10477,2713,4235,Tag0,unknown
1544369938000,0,21,4.614257812500001E-6,37,37,36,26620,22941,2859,17270,7577,10477,2713,4235,Tag0,unknown
1544369938000,0,7,1.5380859375E-6,37,37,36,26620,22941,2859,17270,7577,10477,2713,4235,Tag0,unknown
1544369938000,0,9,1.9775390625E-6,37,37,36,26620,22941,2859,17270,7577,10477,2713,4235,Tag0,unknown
1544369938000,0,9,1.9775390625E-6,37,37,36,26620,22941,2859,17270,7577,10477,2713,4235,Tag0,unknown
1544369938000,0,10,2.197265625E-6,37,37,36,26620,22941,2859,17270,7577,10477,2713,4235,Tag0,unknown
1544369938017,0,28,6.15234375E-6,37,37,36,26620,22941,2859,17270,7577,10477,2713,4235,Tag0,unknown
1544369938018,0,41,9.008789062499999E-6,37,37,36,26620,22941,2859,17270,7577,10477,2713,4235,Tag0,unknown
1544369938018,0,17,3.7353515625000003E-6,37,37,36,26620,22941,2859,17270,7577,10477,2713,4235,Tag0,unknown
1544369938018,0,-261,-5.73486328125E-5,37,37,36,26620,22941,2859,17270,7577,10477,2713,4235,Tag0,unknown
1544369938019,0,-257,-5.64697265625E-5,37,37,36,26620,22941,2859,17270,7577,10477,2713,4235,Tag0,unknown
1544369938019,0,9,1.9775390625E-6,37,37,36,26620,22941,2859,17270,7577,10477,2713,4235,Tag0,unknown
1544369938019,0,22,4.833984375E-6,37,37,36,26620,22941,2859,17270,7577,10477,2713,4235,Tag0,unknown
1544369938019,0,45,9.8876953125E-6,37,37,36,26620,22941,2859,17270,7577,10477,2713,4235,Tag0,unknown
1544369938020,0,72,1.58203125E-5,37,37,36,26620,22941,2859,17270,7577,10477,2713,4235,Tag0,unknown
1544369938035,0,84,1.8457031250000004E-5,37,37,36,26620,22941,2859,17270,7577,10477,2713,4235,Tag0,unknown
1544369938035,0,96,2.109375E-5,37,37,36,26620,22941,2859,17270,7577,10477,2713,4235,Tag0,unknown
1544369938039,0,99,2.1752929687500003E-5,37,37,36,26620,22941,2859,17270,7577,10477,2713,4235,Tag0,unknown
1544369938040,0,82,1.8017578124999998E-5,37,37,36,26620,22941,2859,17270,7577,10477,2713,4235,Tag0,unknown
1544369938040,0,65,1.42822265625E-5,37,37,36,26620,22941,2859,17270,7577,10477,2713,4235,Tag0,unknown
1544369938040,0,69,1.51611328125E-5,37,37,36,26620,22941,2859,17270,7577,10477,2713,4235,Tag0,unknown
1544369938040,0,80,1.7578125E-5,37,37,36,26620,22941,2859,17270,7577,10477,2713,4235,Tag0,unknown
1544369938041,0,80,1.7578125E-5,37,37,36,26620,22941,2859,17270,7577,10477,2713,4235,Tag0,unknown
1544369938051,0,66,1.4501953125E-5,37,37,36,26620,22941,2859,17270,7577,10477,2713,4235,Tag0,unknown
1544369938052,0,44,9.66796875E-6,37,37,36,26620,22941,2859,17270,7577,10477,2713,4235,Tag0,unknown
1544369938052,0,20,4.39453125E-6,37,37,36,26620,22941,2859,17270,7577,10477,2713,4235,Tag0,unknown
1544369938053,0,17,3.7353515625000003E-6,37,37,36,26620,22941,2859,17270,7577,10477,2713,4235,Tag0,unknown
1544369938053,0,43,9.448242187500001E-6,37,37,36,26620,22941,2859,17270,7577,10477,2713,4235,Tag0,unknown
1544369938054,0,59,1.29638671875E-5,37,37,36,26620,22941,2859,17270,7577,10477,2713,4235,Tag0,unknown
1544369938054,0,56,1.23046875E-5,37,37,36,26620,22941,2859,17270,7577,10477,2713,4235,Tag0,unknown
1544369938055,0,59,1.29638671875E-5,37,37,36,26620,22941,2859,17270,7577,10477,2713,4235,Tag0,unknown
1544369938055,0,57,1.2524414062500001E-5,37,37,36,26620,22941,2859,17270,7577,10477,2713,4235,Tag0,unknown
1544369938067,0,43,9.448242187500001E-6,37,37,36,26620,22941,2859,17270,7577,10477,2713,4235,Tag0,unknown
1544369938067,0,35,7.6904296875E-6,37,37,36,26620,22941,2859,17270,7577,10477,2713,4235,Tag0,unknown
1544369938068,0,40,8.7890625E-6,37,37,36,26620,22941,2859,17270,7577,10477,2713,4235,Tag0,unknown
1544369938068,0,28,6.15234375E-6,37,37,36,26620,22941,2859,17270,7577,10477,2713,4235,Tag0,unknown
1544369938068,0,19,4.1748046875E-6,37,37,36,26620,22941,2859,17270,7577,10477,2713,4235,Tag0,unknown
1544369938068,0,28,6.15234375E-6,37,37,36,26620,22941,2859,17270,7577,10477,2713,4235,Tag0,unknown
1544369938068,0,37,8.1298828125E-6,37,37,36,26620,22941,2859,17270,7577,10477,2713,4235,Tag0,unknown
1544369938084,0,32,7.03125E-6,37,37,36,26620,22941,2859,17270,7577,10477,2713,4235,Tag0,unknown
1544369938085,0,40,8.7890625E-6,37,37,36,26620,22941,2859,17270,7577,10477,2713,4235,Tag0,unknown
1544369938085,0,52,1.142578125E-5,37,37,36,26620,22941,2859,17270,7577,10477,2713,4235,Tag0,unknown
1544369938086,0,36,7.91015625E-6,37,37,36,26620,22941,2859,17270,7577,10477,2713,4235,Tag0,unknown
1544369938086,0,7,1.5380859375E-6,37,37,36,26620,22941,2859,17270,7577,10477,2713,4235,Tag0,unknown
1544369938086,0,4,8.7890625E-7,37,37,36,26620,22941,2859,17270,7577,10477,2713,4235,Tag0,unknown
1544369938086,0,7,1.5380859375E-6,37,37,36,26620,22941,2859,17270,7577,10477,2713,4235,Tag0,unknown
1544369938086,0,9,1.9775390625E-6,37,37,36,26620,22941,2859,17270,7577,10477,2713,4235,Tag0,unknown
1544369938087,0,16,3.515625E-6,37,37,36,26620,22941,2859,17270,7577,10477,2713,4235,Tag0,unknown
1544369938087,0,25,5.4931640625E-6,37,37,36,26620,22941,2859,17270,7577,10477,2713,4235,Tag0,unknown
1544369938100,0,25,5.4931640625E-6,37,37,36,26620,22941,2859,17270,7577,10477,2713,4235,Tag0,unknown
1544369938100,0,26,5.712890625E-6,37,37,36,26620,22941,2859,17270,7577,10477,2713,4235,Tag0,unknown
1544369938101,0,35,7.6904296875E-6,37,37,36,26620,22941,2859,17270,7577,10477,2713,4235,Tag0,unknown
1544369938101,0,18,3.955078125E-6,37,37,36,26620,22941,2859,17270,7577,10477,2713,4235,Tag0,unknown
1544369938101,0,-260,-5.712890625E-5,37,37,36,26620,22941,2859,17270,7577,10477,2713,4235,Tag0,unknown
1544369938101,0,8,1.7578125E-6,37,37,36,26620,22941,2859,17270,7577,10477,2713,4235,Tag0,unknown
1544369938102,0,35,7.6904296875E-6,37,37,36,26620,22941,2859,17270,7577,10477,2713,4235,Tag0,unknown
1544369938102,0,34,7.4707031250000005E-6,37,37,36,26620,22941,2859,17270,7577,10477,2713,4235,Tag0,unknown
1544369938118,0,24,5.2734375E-6,37,37,36,26620,22941,2859,17270,7577,10477,2713,4235,Tag0,unknown
1544369938118,0,49,1.07666015625E-5,37,37,36,26620,22941,2859,17270,7577,10477,2713,4235,Tag0,unknown
1544369938119,0,69,1.51611328125E-5,37,37,36,26620,22941,2859,17270,7577,10477,2713,4235,Tag0,unknown
1544369938119,0,74,1.6259765625E-5,37,37,36,26620,22941,2859,17270,7577,10477,2713,4235,Tag0,unknown
1544369938119,0,85,1.86767578125E-5,37,37,36,26620,22941,2859,17270,7577,10477,2713,4235,Tag0,unknown
1544369938120,0,75,1.64794921875E-5,37,37,36,26620,22941,2859,17270,7577,10477,2713,4235,Tag0,unknown
1544369938120,0,54,1.1865234375000001E-5,37,37,36,26620,22941,2859,17270,7577,10477,2713,4235,Tag0,unknown
1544369938120,0,53,1.1645507812500002E-5,37,37,36,26620,22941,2859,17270,7577,10477,2713,4235,Tag0,unknown
1544369938121,0,68,1.4941406250000001E-5,37,37,36,26620,22941,2859,17270,7577,10477,2713,4235,Tag0,unknown
1544369938136,0,72,1.58203125E-5,37,37,36,26620,22941,2859,17270,7577,10477,2713,4235,Tag0,unknown
1544369938137,0,64,1.40625E-5,37,37,36,26620,22941,2859,17270,7577,10477,2713,4235,Tag0,unknown
1544369938137,0,39,8.5693359375E-6,37,37,36,26620,22941,2859,17270,7577,10477,2713,4235,Tag0,unknown
1544369938137,0,13,2.8564453125E-6,37,37,36,26620,22941,2859,17270,7577,10477,2713,4235,Tag0,unknown
1544369938138,0,4,8.7890625E-7,37,37,36,26620,22941,2859,17270,7577,10477,2713,4235,Tag0,unknown
1544369938138,0,24,5.2734375E-6,37,37,36,26620,22941,2859,17270,7577,10477,2713,4235,Tag0,unknown
1544369938138,0,44,9.66796875E-6,37,37,36,26620,22941,2859,17270,7577,10477,2713,4235,Tag0,unknown
1544369938138,0,43,9.448242187500001E-6,37,37,36,26620,22941,2859,17270,7577,10477,2713,4235,Tag0,unknown
1544369938153,0,53,1.1645507812500002E-5,37,37,36,26620,22941,2859,17270,7577,10477,2713,4235,Tag0,unknown
1544369938153,0,81,1.77978515625E-5,37,37,36,26620,22941,2859,17270,7577,10477,2713,4235,Tag0,unknown
1544369938154,0,73,1.6040039062500002E-5,37,37,36,26620,22941,2859,17270,7577,10477,2713,4235,Tag0,unknown
1544369938154,0,26,5.712890625E-6,37,37,36,26620,22941,2859,17270,7577,10477,2713,4235,Tag0,unknown
1544369938154,0,-259,-5.69091796875E-5,37,37,36,26620,22941,2859,17270,7577,10477,2713,4235,Tag0,unknown
1544369938154,0,1,2.197265625E-7,37,37,36,26620,22941,2859,17270,7577,10477,2713,4235,Tag0,unknown
1544369938155,0,18,3.955078125E-6,37,37,36,26620,22941,2859,17270,7577,10477,2713,4235,Tag0,unknown
1544369938155,0,28,6.15234375E-6,37,37,36,26620,22941,2859,17270,7577,10477,2713,4235,Tag0,unknown
1544369938155,0,29,6.3720703125E-6,37,37,36,26620,22941,2859,17270,7577,10477,2713,4235,Tag0,unknown
1544369938155,0,20,4.39453125E-6,37,37,36,26620,22941,2859,17270,7577,10477,2713,4235,Tag0,unknown
1544369938169,0,16,3.515625E-6,37,37,36,26620,22941,2859,17270,7577,10477,2713,4235,Tag0,unknown
1544369938169,0,38,8.349609375E-6,37,37,36,26620,22941,2859,17270,7577,10477,2713,4235,Tag0,unknown
1544369938169,0,49,1.07666015625E-5,37,37,36,26620,22941,2859,17270,7577,10477,2713,4235,Tag0,unknown
1544369938170,0,36,7.91015625E-6,37,37,36,26620,22941,2859,17270,7577,10477,2713,4235,Tag0,unknown
1544369938170,0,35,7.6904296875E-6,37,37,36,26620,22941,2859,17270,7577,10477,2713,4235,Tag0,unknown
1544369938170,0,33,7.2509765625E-6,37,37,36,26620,22941,2859,17270,7577,10477,2713,4235,Tag0,unknown
1544369938170,0,21,4.614257812500001E-6,37,37,36,26620,22941,2859,17270,7577,10477,2713,4235,Tag0,unknown
1544369938171,0,20,4.39453125E-6,37,37,36,26620,22941,2859,17270,7577,10477,2713,4235,Tag0,unknown
1544369938186,0,34,7.4707031250000005E-6,37,37,36,26620,22941,2859,17270,7577,10477,2713,4235,Tag0,unknown
1544369938186,0,32,7.03125E-6,37,37,36,26620,22941,2859,17270,7577,10477,2713,4235,Tag0,unknown
1544369938187,0,8,1.7578125E-6,37,37,36,26620,22941,2859,17270,7577,10477,2713,4235,Tag0,unknown
1544369938188,0,10,2.197265625E-6,37,37,36,26620,22941,2859,17270,7577,10477,2713,4235,Tag0,unknown
1544369938189,0,37,8.1298828125E-6,37,37,36,26620,22941,2859,17270,7577,10477,2713,4235,Tag0,unknown
1544369938189,0,54,1.1865234375000001E-5,37,37,36,26620,22941,2859,17270,7577,10477,2713,4235,Tag0,unknown
1544369938190,0,59,1.29638671875E-5,37,37,36,26620,22941,2859,17270,7577,10477,2713,4235,Tag0,unknown
1544369938191,0,68,1.4941406250000001E-5,37,37,36,26620,22941,2859,17270,7577,10477,2713,4235,Tag0,unknown
1544369938202,0,71,1.56005859375E-5,37,37,36,26620,22941,2859,17270,7577,10477,2713,4235,Tag0,unknown
1544369938203,0,69,1.51611328125E-5,37,37,36,26620,22941,2859,17270,7577,10477,2713,4235,Tag0,unknown
1544369938203,0,59,1.29638671875E-5,37,37,36,26620,22941,2859,17270,7577,10477,2713,4235,Tag0,unknown
1544369938204,0,37,8.1298828125E-6,37,37,36,26620,22941,2859,17270,7577,10477,2713,4235,Tag0,unknown
1544369938204,0,17,3.7353515625000003E-6,37,37,36,26620,22941,2859,17270,7577,10477,2713,4235,Tag0,unknown
1544369938204,0,18,3.955078125E-6,37,37,36,26620,22941,2859,17270,7577,10477,2713,4235,Tag0,unknown
1544369938205,0,28,6.15234375E-6,37,37,36,26620,22941,2859,17270,7577,10477,2713,4235,Tag0,unknown
1544369938205,0,26,5.712890625E-6,37,37,36,26620,22941,2859,17270,7577,10477,2713,4235,Tag0,unknown
1544369938205,0,19,4.1748046875E-6,37,37,36,26620,22941,2859,17270,7577,10477,2713,4235,Tag0,unknown
1544369938218,0,33,7.2509765625E-6,37,37,36,26620,22941,2859,17270,7577,10477,2713,4235,Tag0,unknown
1544369938218,0,41,9.008789062499999E-6,37,37,36,26620,22941,2859,17270,7577,10477,2713,4235,Tag0,unknown
1544369938219,0,35,7.6904296875E-6,37,37,36,26620,22941,2859,17270,7577,10477,2713,4235,Tag0,unknown
1544369938219,0,44,9.66796875E-6,37,37,36,26620,22941,2859,17270,7577,10477,2713,4235,Tag0,unknown
1544369938219,0,57,1.2524414062500001E-5,37,37,36,26620,22941,2859,17270,7577,10477,2713,4235,Tag0,unknown
1544369938219,0,50,1.0986328125E-5,37,37,36,26620,22941,2859,17270,7577,10477,2713,4235,Tag0,unknown
1544369938220,0,27,5.9326171875000005E-6,37,37,36,26620,22941,2859,17270,7577,10477,2713,4235,Tag0,unknown
1544369938220,0,19,4.1748046875E-6,37,37,36,26620,22941,2859,17270,7577,10477,2713,4235,Tag0,unknown
1544369938233,0,1,2.197265625E-7,37,37,36,26620,22941,2859,17270,7577,10477,2713,4235,Tag0,unknown
1544369938234,0,-267,-5.86669921875E-5,37,37,36,26620,22941,2859,17270,7577,10477,2713,4235,Tag0,unknown
1544369938235,0,-258,-5.6689453125000004E-5,37,37,36,26620,22941,2859,17270,7577,10477,2713,4235,Tag0,unknown
1544369938235,0,12,2.63671875E-6,37,37,36,26620,22941,2859,17270,7577,10477,2713,4235,Tag0,unknown
1544369938235,0,28,6.15234375E-6,37,37,36,26620,22941,2859,17270,7577,10477,2713,4235,Tag0,unknown
1544369938235,0,49,1.07666015625E-5,37,37,36,26620,22941,2859,17270,7577,10477,2713,4235,Tag0,unknown
1544369938236,0,55,1.20849609375E-5,37,37,36,26620,22941,2859,17270,7577,10477,2713,4235,Tag0,unknown
1544369938236,0,38,8.349609375E-6,37,37,36,26620,22941,2859,17270,7577,10477,2713,4235,Tag0,unknown
1544369938251,0,25,5.4931640625E-6,37,37,36,26620,22941,2859,17270,7577,10477,2713,4235,Tag0,unknown
1544369938251,0,41,9.008789062499999E-6,37,37,36,26620,22941,2859,17270,7577,10477,2713,4235,Tag0,unknown
1544369938251,0,54,1.1865234375000001E-5,37,37,36,26620,22941,2859,17270,7577,10477,2713,4235,Tag0,unknown
1544369938252,0,66,1.4501953125E-5,37,37,36,26620,22941,2859,17270,7577,10477,2713,4235,Tag0,unknown
1544369938252,0,84,1.8457031250000004E-5,37,37,36,26620,22941,2859,17270,7577,10477,2713,4235,Tag0,unknown
1544369938252,0,98,2.1533203125E-5,37,37,36,26620,22941,2859,17270,7577,10477,2713,4235,Tag0,unknown
1544369938253,0,89,1.95556640625E-5,37,37,36,26620,22941,2859,17270,7577,10477,2713,4235,Tag0,unknown
1544369938253,0,82,1.8017578124999998E-5,37,37,36,26620,22941,2859,17270,7577,10477,2713,4235,Tag0,unknown
1544369938253,0,84,1.8457031250000004E-5,37,37,36,26620,22941,2859,17270,7577,10477,2713,4235,Tag0,unknown
1544369938269,0,71,1.56005859375E-5,37,37,36,26620,22941,2859,17270,7577,10477,2713,4235,Tag0,unknown
1544369938270,0,56,1.23046875E-5,37,37,36,26620,22941,2859,17270,7577,10477,2713,4235,Tag0,unknown
1544369938270,0,56,1.23046875E-5,37,37,36,26620,22941,2859,17270,7577,10477,2713,4235,Tag0,unknown
1544369938270,0,51,1.1206054687499999E-5,37,37,36,26620,22941,2859,17270,7577,10477,2713,4235,Tag0,unknown
1544369938271,0,28,6.15234375E-6,37,37,36,26620,22941,2859,17270,7577,10477,2713,4235,Tag0,unknown
1544369938271,0,19,4.1748046875E-6,37,37,36,26620,22941,2859,17270,7577,10477,2713,4235,Tag0,unknown
1544369938284,0,18,3.955078125E-6,37,37,36,26620,22941,2859,17270,7577,10477,2713,4235,Tag0,unknown
1544369938285,0,3,6.591796875E-7,37,37,36,26620,22941,2859,17270,7577,10477,2713,4235,Tag0,unknown
1544369938285,0,5,1.0986328125E-6,37,37,36,26620,22941,2859,17270,7577,10477,2713,4235,Tag0,unknown
1544369938285,0,32,7.03125E-6,37,37,36,26620,22941,2859,17270,7577,10477,2713,4235,Tag0,unknown
1544369938285,0,29,6.3720703125E-6,37,37,36,26620,22941,2859,17270,7577,10477,2713,4235,Tag0,unknown
1544369938286,0,7,1.5380859375E-6,37,37,36,26620,22941,2859,17270,7577,10477,2713,4235,Tag0,unknown
1544369938286,0,9,1.9775390625E-6,37,37,36,26620,22941,2859,17270,7577,10477,2713,4235,Tag0,unknown
1544369938286,0,35,7.6904296875E-6,37,37,36,26620,22941,2859,17270,7577,10477,2713,4235,Tag0,unknown
1544369938286,0,41,9.008789062499999E-6,37,37,36,26620,22941,2859,17270,7577,10477,2713,4235,Tag0,unknown
1544369938287,0,38,8.349609375E-6,37,37,36,26620,22941,2859,17270,7577,10477,2713,4235,Tag0,unknown
1544369938302,0,38,8.349609375E-6,37,37,36,26620,22941,2859,17270,7577,10477,2713,4235,Tag0,unknown
1544369938302,0,50,1.0986328125E-5,37,37,36,26620,22941,2859,17270,7577,10477,2713,4235,Tag0,unknown
1544369938303,0,66,1.4501953125E-5,37,37,36,26620,22941,2859,17270,7577,10477,2713,4235,Tag0,unknown
1544369938303,0,75,1.64794921875E-5,37,37,36,26620,22941,2859,17270,7577,10477,2713,4235,Tag0,unknown
1544369938304,0,74,1.6259765625E-5,37,37,36,26620,22941,2859,17270,7577,10477,2713,4235,Tag0,unknown
1544369938305,0,57,1.2524414062500001E-5,37,37,36,26620,22941,2859,17270,7577,10477,2713,4235,Tag0,unknown
1544369938305,0,44,9.66796875E-6,37,37,36,26620,22941,2859,17270,7577,10477,2713,4235,Tag0,unknown
1544369938306,0,33,7.2509765625E-6,37,37,36,26620,22941,2859,17270,7577,10477,2713,4235,Tag0,unknown
1544369938306,0,16,3.515625E-6,37,37,36,26620,22941,2859,17270,7577,10477,2713,4235,Tag0,unknown
1544369938306,0,18,3.955078125E-6,37,37,36,26620,22941,2859,17270,7577,10477,2713,4235,Tag0,unknown
1544369938317,0,53,1.1645507812500002E-5,37,37,36,26620,22941,2859,17270,7577,10477,2713,4235,Tag0,unknown
1544369938317,0,65,1.42822265625E-5,37,37,36,26620,22941,2859,17270,7577,10477,2713,4235,Tag0,unknown
1544369938318,0,43,9.448242187500001E-6,37,37,36,26620,22941,2859,17270,7577,10477,2713,4235,Tag0,unknown
1544369938318,0,28,6.15234375E-6,37,37,36,26620,22941,2859,17270,7577,10477,2713,4235,Tag0,unknown
1544369938318,0,28,6.15234375E-6,37,37,36,26620,22941,2859,17270,7577,10477,2713,4235,Tag0,unknown
1544369938318,0,33,7.2509765625E-6,37,37,36,26620,22941,2859,17270,7577,10477,2713,4235,Tag0,unknown
1544369938318,0,42,9.228515625000002E-6,37,37,36,26620,22941,2859,17270,7577,10477,2713,4235,Tag0,unknown
1544369938318,0,57,1.2524414062500001E-5,37,37,36,26620,22941,2859,17270,7577,10477,2713,4235,Tag0,unknown
1544369938376,0,58,1.2744140625E-5,37,37,36,26620,22941,2859,17270,7577,10477,2713,4235,Tag0,unknown
1544369938377,0,55,1.20849609375E-5,37,37,36,26620,22941,2859,17270,7577,10477,2713,4235,Tag0,unknown
1544369938377,0,66,1.4501953125E-5,37,37,36,26620,22941,2859,17270,7577,10477,2713,4235,Tag0,unknown
1544369938385,0,64,1.40625E-5,37,37,36,26620,22941,2859,17270,7577,10477,2713,4235,Tag0,unknown
1544369938386,0,13,2.8564453125E-6,37,37,36,26620,22941,2859,17270,7577,10477,2713,4235,Tag0,unknown
1544369938386,0,-282,-6.1962890625E-5,37,37,36,26620,22941,2859,17270,7577,10477,2713,4235,Tag0,unknown
1544369938386,0,-276,-6.064453125E-5,37,37,36,26620,22941,2859,17270,7577,10477,2713,4235,Tag0,unknown
1544369938386,0,2,4.39453125E-7,37,37,36,26620,22941,2859,17270,7577,10477,2713,4235,Tag0,unknown
1544369938387,0,9,1.9775390625E-6,37,37,36,26620,22941,2859,17270,7577,10477,2713,4235,Tag0,unknown
1544369938387,0,13,2.8564453125E-6,37,37,36,26620,22941,2859,17270,7577,10477,2713,4235,Tag0,unknown
1544369938387,0,12,2.63671875E-6,37,37,36,26620,22941,2859,17270,7577,10477,2713,4235,Tag0,unknown
1544369938401,0,-266,-5.8447265625E-5,37,37,36,26620,22941,2859,17270,7577,10477,2713,4235,Tag0,unknown
1544369938401,0,-293,-6.43798828125E-5,37,37,36,26620,22941,2859,17270,7577,10477,2713,4235,Tag0,unknown
1544369938402,0,-282,-6.1962890625E-5,37,37,36,26620,22941,2859,17270,7577,10477,2713,4235,Tag0,unknown
1544369938402,0,-263,-5.7788085937500005E-5,37,37,36,26620,22941,2859,17270,7577,10477,2713,4235,Tag0,unknown
1544369938402,0,7,1.5380859375E-6,37,37,36,26620,22941,2859,17270,7577,10477,2713,4235,Tag0,unknown
1544369938402,0,11,2.4169921875E-6,37,37,36,26620,22941,2859,17270,7577,10477,2713,4235,Tag0,unknown
1544369938402,0,3,6.591796875E-7,37,37,36,26620,22941,2859,17270,7577,10477,2713,4235,Tag0,unknown
1544369938402,0,2,4.39453125E-7,37,37,36,26620,22941,2859,17270,7577,10477,2713,4235,Tag0,unknown
1544369938402,0,6,1.318359375E-6,37,37,36,26620,22941,2859,17270,7577,10477,2713,4235,Tag0,unknown
1544369938403,0,3,6.591796875E-7,37,37,36,26620,22941,2859,17270,7577,10477,2713,4235,Tag0,unknown
1544369938403,0,-259,-5.69091796875E-5,37,37,36,26620,22941,2859,17270,7577,10477,2713,4235,Tag0,unknown
1544369938403,0,10,2.197265625E-6,37,37,36,26620,22941,2859,17270,7577,10477,2713,4235,Tag0,unknown
1544369938403,0,38,8.349609375E-6,37,37,36,26620,22941,2859,17270,7577,10477,2713,4235,Tag0,unknown
1544369938403,0,39,8.5693359375E-6,37,37,36,26620,22941,2859,17270,7577,10477,2713,4235,Tag0,unknown
1544369938403,0,13,2.8564453125E-6,37,37,36,26620,22941,2859,17270,7577,10477,2713,4235,Tag0,unknown
1544369938404,0,5,1.0986328125E-6,37,37,36,26620,22941,2859,17270,7577,10477,2713,4235,Tag0,unknown
1544369938404,0,4,8.7890625E-7,37,37,36,26620,22941,2859,17270,7577,10477,2713,4235,Tag0,unknown
1544369938404,0,-268,-5.8886718750000006E-5,37,37,36,26620,22941,2859,17270,7577,10477,2713,4235,Tag0,unknown
1544369938404,0,-283,-6.218261718750001E-5,37,37,36,26620,22941,2859,17270,7577,10477,2713,4235,Tag0,unknown
1544369938404,0,-268,-5.8886718750000006E-5,37,37,36,26620,22941,2859,17270,7577,10477,2713,4235,Tag0,unknown
1544369938405,0,-260,-5.712890625E-5,37,37,36,26620,22941,2859,17270,7577,10477,2713,4235,Tag0,unknown
1544369938405,0,-260,-5.712890625E-5,37,37,36,26620,22941,2859,17270,7577,10477,2713,4235,Tag0,unknown
1544369938405,0,8,1.7578125E-6,37,37,36,26620,22941,2859,17270,7577,10477,2713,4235,Tag0,unknown
1544369938405,0,24,5.2734375E-6,37,37,36,26620,22941,2859,17270,7577,10477,2713,4235,Tag0,unknown
1544369938405,0,26,5.712890625E-6,37,37,36,26620,22941,2859,17270,7577,10477,2713,4235,Tag0,unknown
1544369938405,0,27,5.9326171875000005E-6,37,37,36,26620,22941,2859,17270,7577,10477,2713,4235,Tag0,unknown
1544369938405,0,23,5.0537109375E-6,37,37,36,26620,22941,2859,17270,7577,10477,2713,4235,Tag0,unknown
1544369938406,0,-257,-5.64697265625E-5,37,37,36,26620,22941,2859,17270,7577,10477,2713,4235,Tag0,unknown
1544369938406,0,-281,-6.17431640625E-5,37,37,36,26620,22941,2859,17270,7577,10477,2713,4235,Tag0,unknown
1544369938466,0,-274,-6.0205078124999997E-5,37,37,36,26620,22941,2859,17270,7577,10477,2713,4235,Tag0,unknown
1544369938475,0,-267,-5.86669921875E-5,37,37,36,26620,22941,2859,17270,7577,10477,2713,4235,Tag0,unknown
1544369938477,0,-269,-5.9106445312499996E-5,37,37,36,26620,22941,2859,17270,7577,10477,2713,4235,Tag0,unknown
1544369938478,0,-262,-5.7568359375E-5,37,37,36,26620,22941,2859,17270,7577,10477,2713,4235,Tag0,unknown
1544369938478,0,1,2.197265625E-7,37,37,36,26620,22941,2859,17270,7577,10477,2713,4235,Tag0,unknown
1544369938479,0,5,1.0986328125E-6,37,37,36,26620,22941,2859,17270,7577,10477,2713,4235,Tag0,unknown
1544369938480,0,26,5.712890625E-6,37,37,36,26620,22941,2859,17270,7577,10477,2713,4235,Tag0,unknown
1544369938487,0,56,1.23046875E-5,37,37,36,26620,22941,2859,17270,7577,10477,2713,4235,Tag0,unknown
1544369938488,0,52,1.142578125E-5,37,37,36,26620,22941,2859,17270,7577,10477,2713,4235,Tag0,unknown
1544369938489,0,26,5.712890625E-6,37,37,36,26620,22941,2859,17270,7577,10477,2713,4235,Tag0,unknown
1544369938489,0,20,4.39453125E-6,37,37,36,26620,22941,2859,17270,7577,10477,2713,4235,Tag0,unknown
1544369938490,0,19,4.1748046875E-6,37,37,36,26620,22941,2859,17270,7577,10477,2713,4235,Tag0,unknown
1544369938491,0,3,6.591796875E-7,37,37,36,26620,22941,2859,17270,7577,10477,2713,4235,Tag0,unknown
1544369938491,0,-263,-5.7788085937500005E-5,37,37,36,26620,22941,2859,17270,7577,10477,2713,4235,Tag0,unknown
1544369938492,0,-268,-5.8886718750000006E-5,37,37,36,26620,22941,2859,17270,7577,10477,2713,4235,Tag0,unknown
1544369938492,0,-283,-6.218261718750001E-5,37,37,36,26620,22941,2859,17270,7577,10477,2713,4235,Tag0,unknown
1544369938493,0,-286,-6.2841796875E-5,37,37,36,26620,22941,2859,17270,7577,10477,2713,4235,Tag0,unknown
1544369938493,0,-280,-6.15234375E-5,37,37,36,26620,22941,2859,17270,7577,10477,2713,4235,Tag0,unknown
1544369938493,0,-281,-6.17431640625E-5,37,37,36,26620,22941,2859,17270,7577,10477,2713,4235,Tag0,unknown
1544369938493,0,-286,-6.2841796875E-5,37,37,36,26620,22941,2859,17270,7577,10477,2713,4235,Tag0,unknown
1544369938494,0,-284,-6.240234375E-5,37,37,36,26620,22941,2859,17270,7577,10477,2713,4235,Tag0,unknown
1544369938494,0,-277,-6.0864257812500005E-5,37,37,36,26620,22941,2859,17270,7577,10477,2713,4235,Tag0,unknown
1544369938494,0,-270,-5.9326171875E-5,37,37,36,26620,22941,2859,17270,7577,10477,2713,4235,Tag0,unknown
1544369938494,0,1,2.197265625E-7,37,37,36,26620,22941,2859,17270,7577,10477,2713,4235,Tag0,unknown
1544369938495,0,34,7.4707031250000005E-6,37,37,36,26620,22941,2859,17270,7577,10477,2713,4235,Tag0,unknown
1544369938495,0,44,9.66796875E-6,37,37,36,26620,22941,2859,17270,7577,10477,2713,4235,Tag0,unknown
1544369938495,0,22,4.833984375E-6,37,37,36,26620,22941,2859,17270,7577,10477,2713,4235,Tag0,unknown
1544369938496,0,12,2.63671875E-6,37,37,36,26620,22941,2859,17270,7577,10477,2713,4235,Tag0,unknown
1544369938496,0,25,5.4931640625E-6,37,37,36,26620,22941,2859,17270,7577,10477,2713,4235,Tag0,unknown
1544369938496,0,28,6.15234375E-6,37,37,36,26620,22941,2859,17270,7577,10477,2713,4235,Tag0,unknown
1544369938496,0,23,5.0537109375E-6,37,37,36,26620,22941,2859,17270,7577,10477,2713,4235,Tag0,unknown
1544369938496,0,32,7.03125E-6,37,37,36,26620,22941,2859,17270,7577,10477,2713,4235,Tag0,unknown
1544369938497,0,26,5.712890625E-6,37,37,36,26620,22941,2859,17270,7577,10477,2713,4235,Tag0,unknown
1544369938497,0,17,3.7353515625000003E-6,37,37,36,26620,22941,2859,17270,7577,10477,2713,4235,Tag0,unknown
1544369938497,0,26,5.712890625E-6,37,37,36,26620,22941,2859,17270,7577,10477,2713,4235,Tag0,unknown
1544369938497,0,33,7.2509765625E-6,37,37,36,26620,22941,2859,17270,7577,10477,2713,4235,Tag0,unknown
1544369938498,0,20,4.39453125E-6,37,37,36,26620,22941,2859,17270,7577,10477,2713,4235,Tag0,unknown
1544369938498,0,17,3.7353515625000003E-6,37,37,36,26620,22941,2859,17270,7577,10477,2713,4235,Tag0,unknown
1544369938498,0,27,5.9326171875000005E-6,37,37,36,26620,22941,2859,17270,7577,10477,2713,4235,Tag0,unknown
1544369938498,0,35,7.6904296875E-6,37,37,36,26620,22941,2859,17270,7577,10477,2713,4235,Tag0,unknown
1544369938499,0,24,5.2734375E-6,37,37,36,26620,22941,2859,17270,7577,10477,2713,4235,Tag0,unknown
1544369938499,0,10,2.197265625E-6,37,37,36,26620,22941,2859,17270,7577,10477,2713,4235,Tag0,unknown
1544369938500,0,-258,-5.6689453125000004E-5,37,37,36,26620,22941,2859,17270,7577,10477,2713,4235,Tag0,unknown
1544369938500,0,7,1.5380859375E-6,37,37,36,26620,22941,2859,17270,7577,10477,2713,4235,Tag0,unknown
1544369938501,0,48,1.0546875E-5,37,37,36,26620,22941,2859,17270,7577,10477,2713,4235,Tag0,unknown
1544369938549,0,71,1.56005859375E-5,37,37,36,26620,22941,2859,17270,7577,10477,2713,4235,Tag0,unknown
1544369938573,0,54,1.1865234375000001E-5,37,37,36,26620,22941,2859,17270,7577,10477,2713,4235,Tag0,unknown
1544369938573,0,38,8.349609375E-6,37,37,36,26620,22941,2859,17270,7577,10477,2713,4235,Tag0,unknown
1544369938573,0,23,5.0537109375E-6,37,37,36,26620,22941,2859,17270,7577,10477,2713,4235,Tag0,unknown
1544369938574,0,5,1.0986328125E-6,37,37,36,26620,22941,2859,17270,7577,10477,2713,4235,Tag0,unknown
1544369938574,0,6,1.318359375E-6,37,37,36,26620,22941,2859,17270,7577,10477,2713,4235,Tag0,unknown
1544369938574,0,25,5.4931640625E-6,37,37,36,26620,22941,2859,17270,7577,10477,2713,4235,Tag0,unknown
1544369938574,0,28,6.15234375E-6,37,37,36,26620,22941,2859,17270,7577,10477,2713,4235,Tag0,unknown
1544369938575,0,25,5.4931640625E-6,37,37,36,26620,22941,2859,17270,7577,10477,2713,4235,Tag0,unknown
1544369938575,0,44,9.66796875E-6,37,37,36,26620,22941,2859,17270,7577,10477,2713,4235,Tag0,unknown
1544369938575,0,56,1.23046875E-5,37,37,36,26620,22941,2859,17270,7577,10477,2713,4235,Tag0,unknown
1544369938575,0,41,9.008789062499999E-6,37,37,36,26620,22941,2859,17270,7577,10477,2713,4235,Tag0,unknown
1544369938575,0,23,5.0537109375E-6,37,37,36,26620,22941,2859,17270,7577,10477,2713,4235,Tag0,unknown
1544369938576,0,18,3.955078125E-6,37,37,36,26620,22941,2859,17270,7577,10477,2713,4235,Tag0,unknown
1544369938576,0,12,2.63671875E-6,37,37,36,26620,22941,2859,17270,7577,10477,2713,4235,Tag0,unknown
1544369938576,0,6,1.318359375E-6,37,37,36,26620,22941,2859,17270,7577,10477,2713,4235,Tag0,unknown
1544369938577,0,13,2.8564453125E-6,37,37,36,26620,22941,2859,17270,7577,10477,2713,4235,Tag0,unknown
1544369938586,0,16,3.515625E-6,37,37,36,26620,22941,2859,17270,7577,10477,2713,4235,Tag0,unknown
1544369938587,0,-264,-5.80078125E-5,37,37,36,26620,22941,2859,17270,7577,10477,2713,4235,Tag0,unknown
1544369938587,0,-268,-5.8886718750000006E-5,37,37,36,26620,22941,2859,17270,7577,10477,2713,4235,Tag0,unknown
1544369938588,0,6,1.318359375E-6,37,37,36,26620,22941,2859,17270,7577,10477,2713,4235,Tag0,unknown
1544369938596,0,24,5.2734375E-6,56,40,36,24737,8809,4630,12834,9271,6621,6706,4830,Tag0,unknown
1544369938596,0,33,7.2509765625E-6,56,40,36,24737,8809,4630,12834,9271,6621,6706,4830,Tag0,unknown
1544369938597,0,44,9.66796875E-6,56,40,36,24737,8809,4630,12834,9271,6621,6706,4830,Tag0,unknown
1544369938597,0,48,1.0546875E-5,56,40,36,24737,8809,4630,12834,9271,6621,6706,4830,Tag0,unknown
1544369938597,0,23,5.0537109375E-6,56,40,36,24737,8809,4630,12834,9271,6621,6706,4830,Tag0,unknown
1544369938597,0,11,2.4169921875E-6,56,40,36,24737,8809,4630,12834,9271,6621,6706,4830,Tag0,unknown
1544369938597,0,29,6.3720703125E-6,56,40,36,24737,8809,4630,12834,9271,6621,6706,4830,Tag0,unknown
1544369938598,0,36,7.91015625E-6,56,40,36,24737,8809,4630,12834,9271,6621,6706,4830,Tag0,unknown
1544369938598,0,39,8.5693359375E-6,56,40,36,24737,8809,4630,12834,9271,6621,6706,4830,Tag0,unknown
1544369938598,0,52,1.142578125E-5,56,40,36,24737,8809,4630,12834,9271,6621,6706,4830,Tag0,unknown
1544369938598,0,43,9.448242187500001E-6,56,40,36,24737,8809,4630,12834,9271,6621,6706,4830,Tag0,unknown
1544369938599,0,24,5.2734375E-6,56,40,36,24737,8809,4630,12834,9271,6621,6706,4830,Tag0,unknown
1544369938599,0,18,3.955078125E-6,56,40,36,24737,8809,4630,12834,9271,6621,6706,4830,Tag0,unknown
1544369938600,0,17,3.7353515625000003E-6,56,40,36,24737,8809,4630,12834,9271,6621,6706,4830,Tag0,unknown
1544369938600,0,7,1.5380859375E-6,56,40,36,24737,8809,4630,12834,9271,6621,6706,4830,Tag0,unknown
1544369938601,0,-259,-5.69091796875E-5,56,40,36,24737,8809,4630,12834,9271,6621,6706,4830,Tag0,unknown
1544369938601,0,-260,-5.712890625E-5,56,40,36,24737,8809,4630,12834,9271,6621,6706,4830,Tag0,unknown
1544369938602,0,-281,-6.17431640625E-5,56,40,36,24737,8809,4630,12834,9271,6621,6706,4830,Tag0,unknown
1544369938628,0,-293,-6.43798828125E-5,56,40,36,24737,8809,4630,12834,9271,6621,6706,4830,Tag0,unknown
1544369938634,0,-257,-5.64697265625E-5,56,40,36,24737,8809,4630,12834,9271,6621,6706,4830,Tag0,unknown
1544369938635,0,32,7.03125E-6,56,40,36,24737,8809,4630,12834,9271,6621,6706,4830,Tag0,unknown
1544369938635,0,18,3.955078125E-6,56,40,36,24737,8809,4630,12834,9271,6621,6706,4830,Tag0,unknown
1544369938635,0,-257,-5.64697265625E-5,56,40,36,24737,8809,4630,12834,9271,6621,6706,4830,Tag0,unknown
1544369938636,0,-258,-5.6689453125000004E-5,56,40,36,24737,8809,4630,12834,9271,6621,6706,4830,Tag0,unknown
1544369938636,0,8,1.7578125E-6,56,40,36,24737,8809,4630,12834,9271,6621,6706,4830,Tag0,unknown
1544369938651,0,36,7.91015625E-6,56,40,36,24737,8809,4630,12834,9271,6621,6706,4830,Tag0,unknown
1544369938651,0,67,1.4721679687500002E-5,56,40,36,24737,8809,4630,12834,9271,6621,6706,4830,Tag0,unknown
1544369938651,0,67,1.4721679687500002E-5,56,40,36,24737,8809,4630,12834,9271,6621,6706,4830,Tag0,unknown
1544369938652,0,36,7.91015625E-6,56,40,36,24737,8809,4630,12834,9271,6621,6706,4830,Tag0,unknown
1544369938652,0,0,0.0,56,40,36,24737,8809,4630,12834,9271,6621,6706,4830,Tag0,unknown
1544369938652,0,-281,-6.17431640625E-5,56,40,36,24737,8809,4630,12834,9271,6621,6706,4830,Tag0,unknown
1544369938652,0,-306,-6.723632812500001E-5,56,40,36,24737,8809,4630,12834,9271,6621,6706,4830,Tag0,unknown
1544369938652,0,-294,-6.4599609375E-5,56,40,36,24737,8809,4630,12834,9271,6621,6706,4830,Tag0,unknown
1544369938653,0,8,1.7578125E-6,56,40,36,24737,8809,4630,12834,9271,6621,6706,4830,Tag0,unknown
1544369938653,0,36,7.91015625E-6,56,40,36,24737,8809,4630,12834,9271,6621,6706,4830,Tag0,unknown
1544369938653,0,34,7.4707031250000005E-6,56,40,36,24737,8809,4630,12834,9271,6621,6706,4830,Tag0,unknown
